# WAVELENGTH_UNIT	AA
# COMPNAME       	CFHT_WIRCAM_CFH8101
# NAME           	CFHT_WIRCAM_CFH8101
# DETECTOR       	photon
#
## WAVELENGTH	None	AA
## THROUGHPUT	None	filter throughput definition
#
WAVELENGTH,THROUGHPUT
11470.000000,0.002880
11472.000000,0.003100
11474.000000,0.003100
11476.000000,0.003200
11478.000000,0.003280
11480.000000,0.003310
11482.000000,0.003420
11484.000000,0.003560
11486.000000,0.003620
11488.000000,0.003780
11490.000000,0.003920
11492.000000,0.003980
11494.000000,0.004090
11496.000000,0.004200
11498.000000,0.004380
11500.000000,0.004580
11502.000000,0.004780
11504.000000,0.004850
11506.000000,0.005050
11508.000000,0.005310
11510.000000,0.005460
11512.000000,0.005620
11514.000000,0.005860
11516.000000,0.006090
11518.000000,0.006270
11520.000000,0.006500
11522.000000,0.006760
11524.000000,0.007100
11526.000000,0.007340
11528.000000,0.007570
11530.000000,0.007750
11532.000000,0.008010
11534.000000,0.008300
11536.000000,0.008650
11538.000000,0.009050
11540.000000,0.009370
11542.000000,0.009860
11544.000000,0.010280
11546.000000,0.010650
11548.000000,0.010990
11550.000000,0.011520
11552.000000,0.011960
11554.000000,0.012440
11556.000000,0.012880
11558.000000,0.013310
11560.000000,0.013950
11562.000000,0.014570
11564.000000,0.015200
11566.000000,0.015870
11568.000000,0.016460
11570.000000,0.017040
11572.000000,0.017670
11574.000000,0.018340
11576.000000,0.018950
11578.000000,0.019710
11580.000000,0.020510
11582.000000,0.021210
11584.000000,0.021960
11586.000000,0.022740
11588.000000,0.023500
11590.000000,0.024410
11592.000000,0.025270
11594.000000,0.026080
11596.000000,0.026960
11598.000000,0.027920
11600.000000,0.028790
11602.000000,0.029800
11604.000000,0.030760
11606.000000,0.031720
11608.000000,0.032840
11610.000000,0.033920
11612.000000,0.035030
11614.000000,0.036160
11616.000000,0.037490
11618.000000,0.038700
11620.000000,0.040050
11622.000000,0.041370
11624.000000,0.042790
11626.000000,0.044240
11628.000000,0.045650
11630.000000,0.047060
11632.000000,0.048810
11634.000000,0.050510
11636.000000,0.052320
11638.000000,0.054230
11640.000000,0.056090
11642.000000,0.058010
11644.000000,0.060010
11646.000000,0.062190
11648.000000,0.064330
11650.000000,0.066740
11652.000000,0.069260
11654.000000,0.071900
11656.000000,0.074660
11658.000000,0.077510
11660.000000,0.080580
11662.000000,0.083720
11664.000000,0.087070
11666.000000,0.090620
11668.000000,0.094250
11670.000000,0.098110
11672.000000,0.102310
11674.000000,0.106740
11676.000000,0.111430
11678.000000,0.116300
11680.000000,0.121410
11682.000000,0.126790
11684.000000,0.132370
11686.000000,0.138280
11688.000000,0.144380
11690.000000,0.150790
11692.000000,0.157490
11694.000000,0.164610
11696.000000,0.171810
11698.000000,0.179290
11700.000000,0.187230
11702.000000,0.195370
11704.000000,0.203670
11706.000000,0.212330
11708.000000,0.221150
11710.000000,0.230350
11712.000000,0.239720
11714.000000,0.249330
11716.000000,0.259230
11718.000000,0.269300
11720.000000,0.279630
11722.000000,0.290220
11724.000000,0.300920
11726.000000,0.311800
11728.000000,0.322850
11730.000000,0.334120
11732.000000,0.345410
11734.000000,0.356810
11736.000000,0.368300
11738.000000,0.379880
11740.000000,0.391590
11742.000000,0.403260
11744.000000,0.415020
11746.000000,0.426760
11748.000000,0.438450
11750.000000,0.450060
11752.000000,0.461650
11754.000000,0.473210
11756.000000,0.484590
11758.000000,0.495860
11760.000000,0.507060
11762.000000,0.518010
11764.000000,0.528790
11766.000000,0.539430
11768.000000,0.549870
11770.000000,0.560030
11772.000000,0.570110
11774.000000,0.579850
11776.000000,0.589430
11778.000000,0.598830
11780.000000,0.607960
11782.000000,0.616850
11784.000000,0.625410
11786.000000,0.633610
11788.000000,0.641770
11790.000000,0.649580
11792.000000,0.657090
11794.000000,0.664310
11796.000000,0.671310
11798.000000,0.678180
11800.000000,0.684810
11802.000000,0.691250
11804.000000,0.697340
11806.000000,0.703190
11808.000000,0.708770
11810.000000,0.714050
11812.000000,0.719190
11814.000000,0.724080
11816.000000,0.728850
11818.000000,0.733510
11820.000000,0.737780
11822.000000,0.741870
11824.000000,0.745820
11826.000000,0.749690
11828.000000,0.753310
11830.000000,0.756680
11832.000000,0.759930
11834.000000,0.762950
11836.000000,0.765760
11838.000000,0.768620
11840.000000,0.771260
11842.000000,0.773800
11844.000000,0.776150
11846.000000,0.778380
11848.000000,0.780430
11850.000000,0.782410
11852.000000,0.784350
11854.000000,0.786220
11856.000000,0.787840
11858.000000,0.789380
11860.000000,0.790820
11862.000000,0.792180
11864.000000,0.793500
11866.000000,0.794720
11868.000000,0.795850
11870.000000,0.796830
11872.000000,0.797700
11874.000000,0.798390
11876.000000,0.799060
11878.000000,0.799670
11880.000000,0.800200
11882.000000,0.800540
11884.000000,0.800870
11886.000000,0.800960
11888.000000,0.801060
11890.000000,0.801070
11892.000000,0.801090
11894.000000,0.800920
11896.000000,0.800740
11898.000000,0.800460
11900.000000,0.800110
11902.000000,0.799870
11904.000000,0.799510
11906.000000,0.799130
11908.000000,0.798800
11910.000000,0.798360
11912.000000,0.797840
11914.000000,0.797380
11916.000000,0.796890
11918.000000,0.796480
11920.000000,0.796140
11922.000000,0.795720
11924.000000,0.795410
11926.000000,0.795240
11928.000000,0.794830
11930.000000,0.794590
11932.000000,0.794510
11934.000000,0.794340
11936.000000,0.794270
11938.000000,0.794280
11940.000000,0.794200
11942.000000,0.794310
11944.000000,0.794560
11946.000000,0.794800
11948.000000,0.795140
11950.000000,0.795390
11952.000000,0.795780
11954.000000,0.796260
11956.000000,0.796740
11958.000000,0.797230
11960.000000,0.797900
11962.000000,0.798610
11964.000000,0.799350
11966.000000,0.800000
11968.000000,0.800640
11970.000000,0.801510
11972.000000,0.802350
11974.000000,0.803250
11976.000000,0.804180
11978.000000,0.805130
11980.000000,0.806050
11982.000000,0.807210
11984.000000,0.808200
11986.000000,0.809170
11988.000000,0.810200
11990.000000,0.811170
11992.000000,0.812120
11994.000000,0.813110
11996.000000,0.813920
11998.000000,0.814800
12000.000000,0.815780
12002.000000,0.816540
12004.000000,0.817440
12006.000000,0.818160
12008.000000,0.818800
12010.000000,0.819430
12012.000000,0.819980
12014.000000,0.820480
12016.000000,0.820950
12018.000000,0.821370
12020.000000,0.821560
12022.000000,0.821790
12024.000000,0.822050
12026.000000,0.822100
12028.000000,0.822240
12030.000000,0.822360
12032.000000,0.822430
12034.000000,0.822310
12036.000000,0.822250
12038.000000,0.822040
12040.000000,0.821810
12042.000000,0.821520
12044.000000,0.821260
12046.000000,0.820850
12048.000000,0.820480
12050.000000,0.820050
12052.000000,0.819750
12054.000000,0.819270
12056.000000,0.818910
12058.000000,0.818450
12060.000000,0.817980
12062.000000,0.817470
12064.000000,0.816930
12066.000000,0.816540
12068.000000,0.815980
12070.000000,0.815440
12072.000000,0.814930
12074.000000,0.814450
12076.000000,0.813950
12078.000000,0.813460
12080.000000,0.812990
12082.000000,0.812560
12084.000000,0.812130
12086.000000,0.811690
12088.000000,0.811170
12090.000000,0.810760
12092.000000,0.810410
12094.000000,0.809980
12096.000000,0.809630
12098.000000,0.809170
12100.000000,0.808820
12102.000000,0.808530
12104.000000,0.808360
12106.000000,0.808110
12108.000000,0.807890
12110.000000,0.807750
12112.000000,0.807650
12114.000000,0.807560
12116.000000,0.807430
12118.000000,0.807500
12120.000000,0.807510
12122.000000,0.807500
12124.000000,0.807500
12126.000000,0.807630
12128.000000,0.807740
12130.000000,0.807890
12132.000000,0.808070
12134.000000,0.808300
12136.000000,0.808550
12138.000000,0.808820
12140.000000,0.809100
12142.000000,0.809390
12144.000000,0.809660
12146.000000,0.810010
12148.000000,0.810380
12150.000000,0.810760
12152.000000,0.811130
12154.000000,0.811650
12156.000000,0.812130
12158.000000,0.812560
12160.000000,0.813060
12162.000000,0.813600
12164.000000,0.814120
12166.000000,0.814710
12168.000000,0.815190
12170.000000,0.815640
12172.000000,0.816130
12174.000000,0.816670
12176.000000,0.817260
12178.000000,0.817780
12180.000000,0.818300
12182.000000,0.818830
12184.000000,0.819380
12186.000000,0.819920
12188.000000,0.820370
12190.000000,0.820970
12192.000000,0.821560
12194.000000,0.822040
12196.000000,0.822600
12198.000000,0.823040
12200.000000,0.823530
12202.000000,0.824070
12204.000000,0.824710
12206.000000,0.825270
12208.000000,0.825730
12210.000000,0.826290
12212.000000,0.826750
12214.000000,0.827150
12216.000000,0.827640
12218.000000,0.828020
12220.000000,0.828520
12222.000000,0.828930
12224.000000,0.829300
12226.000000,0.829770
12228.000000,0.830120
12230.000000,0.830670
12232.000000,0.831160
12234.000000,0.831670
12236.000000,0.832050
12238.000000,0.832370
12240.000000,0.832840
12242.000000,0.833180
12244.000000,0.833680
12246.000000,0.834140
12248.000000,0.834580
12250.000000,0.834980
12252.000000,0.835400
12254.000000,0.835820
12256.000000,0.836230
12258.000000,0.836750
12260.000000,0.837170
12262.000000,0.837540
12264.000000,0.837940
12266.000000,0.838240
12268.000000,0.838610
12270.000000,0.839000
12272.000000,0.839290
12274.000000,0.839650
12276.000000,0.839970
12278.000000,0.840330
12280.000000,0.840670
12282.000000,0.841030
12284.000000,0.841400
12286.000000,0.841740
12288.000000,0.842030
12290.000000,0.842250
12292.000000,0.842610
12294.000000,0.842830
12296.000000,0.843080
12298.000000,0.843460
12300.000000,0.843730
12302.000000,0.844040
12304.000000,0.844380
12306.000000,0.844730
12308.000000,0.845020
12310.000000,0.845310
12312.000000,0.845600
12314.000000,0.845890
12316.000000,0.846180
12318.000000,0.846410
12320.000000,0.846690
12322.000000,0.846970
12324.000000,0.847240
12326.000000,0.847580
12328.000000,0.847950
12330.000000,0.848140
12332.000000,0.848480
12334.000000,0.848820
12336.000000,0.849200
12338.000000,0.849520
12340.000000,0.849820
12342.000000,0.850100
12344.000000,0.850430
12346.000000,0.850710
12348.000000,0.851000
12350.000000,0.851380
12352.000000,0.851670
12354.000000,0.851900
12356.000000,0.852080
12358.000000,0.852370
12360.000000,0.852660
12362.000000,0.852920
12364.000000,0.853100
12366.000000,0.853300
12368.000000,0.853420
12370.000000,0.853560
12372.000000,0.853760
12374.000000,0.853970
12376.000000,0.854030
12378.000000,0.854220
12380.000000,0.854310
12382.000000,0.854340
12384.000000,0.854460
12386.000000,0.854490
12388.000000,0.854570
12390.000000,0.854640
12392.000000,0.854600
12394.000000,0.854580
12396.000000,0.854580
12398.000000,0.854550
12400.000000,0.854490
12402.000000,0.854430
12404.000000,0.854400
12406.000000,0.854310
12408.000000,0.854370
12410.000000,0.854320
12412.000000,0.854260
12414.000000,0.854260
12416.000000,0.854250
12418.000000,0.854320
12420.000000,0.854340
12422.000000,0.854280
12424.000000,0.854250
12426.000000,0.854320
12428.000000,0.854290
12430.000000,0.854250
12432.000000,0.854260
12434.000000,0.854230
12436.000000,0.854130
12438.000000,0.854080
12440.000000,0.853970
12442.000000,0.853880
12444.000000,0.853820
12446.000000,0.853670
12448.000000,0.853500
12450.000000,0.853360
12452.000000,0.853180
12454.000000,0.852940
12456.000000,0.852810
12458.000000,0.852550
12460.000000,0.852310
12462.000000,0.852130
12464.000000,0.851930
12466.000000,0.851760
12468.000000,0.851590
12470.000000,0.851350
12472.000000,0.851200
12474.000000,0.851090
12476.000000,0.850890
12478.000000,0.850770
12480.000000,0.850590
12482.000000,0.850310
12484.000000,0.850160
12486.000000,0.849990
12488.000000,0.849750
12490.000000,0.849640
12492.000000,0.849590
12494.000000,0.849330
12496.000000,0.849180
12498.000000,0.849080
12500.000000,0.848880
12502.000000,0.848800
12504.000000,0.848690
12506.000000,0.848630
12508.000000,0.848620
12510.000000,0.848570
12512.000000,0.848650
12514.000000,0.848710
12516.000000,0.848710
12518.000000,0.848710
12520.000000,0.848750
12522.000000,0.848740
12524.000000,0.848750
12526.000000,0.848720
12528.000000,0.848770
12530.000000,0.848720
12532.000000,0.848830
12534.000000,0.848850
12536.000000,0.848770
12538.000000,0.848630
12540.000000,0.848620
12542.000000,0.848650
12544.000000,0.848530
12546.000000,0.848500
12548.000000,0.848530
12550.000000,0.848620
12552.000000,0.848650
12554.000000,0.848770
12556.000000,0.848980
12558.000000,0.849170
12560.000000,0.849320
12562.000000,0.849490
12564.000000,0.849700
12566.000000,0.849900
12568.000000,0.850010
12570.000000,0.850310
12572.000000,0.850520
12574.000000,0.850720
12576.000000,0.851000
12578.000000,0.851150
12580.000000,0.851360
12582.000000,0.851610
12584.000000,0.851850
12586.000000,0.852130
12588.000000,0.852200
12590.000000,0.852510
12592.000000,0.852740
12594.000000,0.853060
12596.000000,0.853230
12598.000000,0.853580
12600.000000,0.854050
12602.000000,0.854310
12604.000000,0.854600
12606.000000,0.854740
12608.000000,0.855010
12610.000000,0.855470
12612.000000,0.855880
12614.000000,0.856350
12616.000000,0.856750
12618.000000,0.857100
12620.000000,0.857470
12622.000000,0.857820
12624.000000,0.858170
12626.000000,0.858460
12628.000000,0.858750
12630.000000,0.859040
12632.000000,0.859330
12634.000000,0.859600
12636.000000,0.859970
12638.000000,0.860350
12640.000000,0.860670
12642.000000,0.860900
12644.000000,0.861150
12646.000000,0.861310
12648.000000,0.861480
12650.000000,0.861500
12652.000000,0.861760
12654.000000,0.861860
12656.000000,0.862060
12658.000000,0.862200
12660.000000,0.862440
12662.000000,0.862530
12664.000000,0.862530
12666.000000,0.862550
12668.000000,0.862560
12670.000000,0.862590
12672.000000,0.862580
12674.000000,0.862580
12676.000000,0.862460
12678.000000,0.862350
12680.000000,0.862320
12682.000000,0.862320
12684.000000,0.862200
12686.000000,0.862140
12688.000000,0.862000
12690.000000,0.861820
12692.000000,0.861620
12694.000000,0.861430
12696.000000,0.861420
12698.000000,0.861340
12700.000000,0.861190
12702.000000,0.860960
12704.000000,0.860760
12706.000000,0.860550
12708.000000,0.860280
12710.000000,0.860030
12712.000000,0.859770
12714.000000,0.859440
12716.000000,0.859100
12718.000000,0.858780
12720.000000,0.858460
12722.000000,0.858200
12724.000000,0.857760
12726.000000,0.857410
12728.000000,0.856990
12730.000000,0.856720
12732.000000,0.856380
12734.000000,0.856060
12736.000000,0.855730
12738.000000,0.855420
12740.000000,0.855160
12742.000000,0.854900
12744.000000,0.854540
12746.000000,0.854390
12748.000000,0.854130
12750.000000,0.853880
12752.000000,0.853550
12754.000000,0.853200
12756.000000,0.853070
12758.000000,0.852800
12760.000000,0.852480
12762.000000,0.852110
12764.000000,0.851720
12766.000000,0.851380
12768.000000,0.851060
12770.000000,0.850680
12772.000000,0.850310
12774.000000,0.850080
12776.000000,0.849870
12778.000000,0.849490
12780.000000,0.849210
12782.000000,0.848980
12784.000000,0.848880
12786.000000,0.848770
12788.000000,0.848650
12790.000000,0.848540
12792.000000,0.848450
12794.000000,0.848420
12796.000000,0.848450
12798.000000,0.848430
12800.000000,0.848460
12802.000000,0.848500
12804.000000,0.848560
12806.000000,0.848460
12808.000000,0.848510
12810.000000,0.848590
12812.000000,0.848660
12814.000000,0.848660
12816.000000,0.848740
12818.000000,0.848800
12820.000000,0.848850
12822.000000,0.848910
12824.000000,0.848940
12826.000000,0.848850
12828.000000,0.848830
12830.000000,0.848850
12832.000000,0.848800
12834.000000,0.848800
12836.000000,0.848800
12838.000000,0.848830
12840.000000,0.848770
12842.000000,0.848790
12844.000000,0.848750
12846.000000,0.848720
12848.000000,0.848630
12850.000000,0.848590
12852.000000,0.848540
12854.000000,0.848530
12856.000000,0.848540
12858.000000,0.848600
12860.000000,0.848560
12862.000000,0.848560
12864.000000,0.848560
12866.000000,0.848510
12868.000000,0.848510
12870.000000,0.848540
12872.000000,0.848460
12874.000000,0.848450
12876.000000,0.848420
12878.000000,0.848510
12880.000000,0.848300
12882.000000,0.848210
12884.000000,0.848020
12886.000000,0.847840
12888.000000,0.847630
12890.000000,0.847500
12892.000000,0.847310
12894.000000,0.847090
12896.000000,0.846950
12898.000000,0.846760
12900.000000,0.846500
12902.000000,0.846270
12904.000000,0.846040
12906.000000,0.845780
12908.000000,0.845460
12910.000000,0.845120
12912.000000,0.844990
12914.000000,0.844770
12916.000000,0.844500
12918.000000,0.844280
12920.000000,0.844100
12922.000000,0.843840
12924.000000,0.843640
12926.000000,0.843490
12928.000000,0.843140
12930.000000,0.842930
12932.000000,0.842740
12934.000000,0.842360
12936.000000,0.842060
12938.000000,0.841690
12940.000000,0.841480
12942.000000,0.841230
12944.000000,0.840930
12946.000000,0.840470
12948.000000,0.840120
12950.000000,0.839780
12952.000000,0.839370
12954.000000,0.838970
12956.000000,0.838610
12958.000000,0.838130
12960.000000,0.837860
12962.000000,0.837450
12964.000000,0.837130
12966.000000,0.836850
12968.000000,0.836590
12970.000000,0.836330
12972.000000,0.836070
12974.000000,0.835770
12976.000000,0.835480
12978.000000,0.835300
12980.000000,0.835100
12982.000000,0.834820
12984.000000,0.834700
12986.000000,0.834410
12988.000000,0.834230
12990.000000,0.834030
12992.000000,0.833770
12994.000000,0.833530
12996.000000,0.833280
12998.000000,0.833070
13000.000000,0.832790
13002.000000,0.832580
13004.000000,0.832280
13006.000000,0.831940
13008.000000,0.831630
13010.000000,0.831410
13012.000000,0.831150
13014.000000,0.830930
13016.000000,0.830570
13018.000000,0.830350
13020.000000,0.830060
13022.000000,0.829710
13024.000000,0.829440
13026.000000,0.829210
13028.000000,0.828870
13030.000000,0.828480
13032.000000,0.828190
13034.000000,0.827800
13036.000000,0.827550
13038.000000,0.827220
13040.000000,0.826980
13042.000000,0.826580
13044.000000,0.826310
13046.000000,0.825910
13048.000000,0.825650
13050.000000,0.825440
13052.000000,0.825200
13054.000000,0.825100
13056.000000,0.824940
13058.000000,0.824680
13060.000000,0.824450
13062.000000,0.824340
13064.000000,0.824110
13066.000000,0.823970
13068.000000,0.823840
13070.000000,0.823590
13072.000000,0.823460
13074.000000,0.823330
13076.000000,0.823090
13078.000000,0.822940
13080.000000,0.822740
13082.000000,0.822490
13084.000000,0.822280
13086.000000,0.822100
13088.000000,0.821820
13090.000000,0.821690
13092.000000,0.821520
13094.000000,0.821260
13096.000000,0.821060
13098.000000,0.820920
13100.000000,0.820710
13102.000000,0.820690
13104.000000,0.820570
13106.000000,0.820470
13108.000000,0.820530
13110.000000,0.820590
13112.000000,0.820590
13114.000000,0.820600
13116.000000,0.820570
13118.000000,0.820570
13120.000000,0.820620
13122.000000,0.820620
13124.000000,0.820690
13126.000000,0.820770
13128.000000,0.820920
13130.000000,0.821060
13132.000000,0.821200
13134.000000,0.821270
13136.000000,0.821400
13138.000000,0.821440
13140.000000,0.821460
13142.000000,0.821460
13144.000000,0.821490
13146.000000,0.821550
13148.000000,0.821580
13150.000000,0.821590
13152.000000,0.821720
13154.000000,0.821760
13156.000000,0.821790
13158.000000,0.821820
13160.000000,0.821900
13162.000000,0.821790
13164.000000,0.821840
13166.000000,0.821910
13168.000000,0.821870
13170.000000,0.822070
13172.000000,0.822020
13174.000000,0.821960
13176.000000,0.821880
13178.000000,0.821790
13180.000000,0.821700
13182.000000,0.821490
13184.000000,0.821180
13186.000000,0.820880
13188.000000,0.820590
13190.000000,0.820240
13192.000000,0.819690
13194.000000,0.819240
13196.000000,0.818560
13198.000000,0.817900
13200.000000,0.817180
13202.000000,0.816220
13204.000000,0.815230
13206.000000,0.814060
13208.000000,0.812880
13210.000000,0.811480
13212.000000,0.810040
13214.000000,0.808550
13216.000000,0.806880
13218.000000,0.805180
13220.000000,0.803180
13222.000000,0.801100
13224.000000,0.798830
13226.000000,0.796430
13228.000000,0.793930
13230.000000,0.791260
13232.000000,0.788480
13234.000000,0.785450
13236.000000,0.782320
13238.000000,0.779160
13240.000000,0.775710
13242.000000,0.772280
13244.000000,0.768570
13246.000000,0.764680
13248.000000,0.760590
13250.000000,0.756380
13252.000000,0.752000
13254.000000,0.747510
13256.000000,0.742770
13258.000000,0.737790
13260.000000,0.732590
13262.000000,0.727330
13264.000000,0.721820
13266.000000,0.716090
13268.000000,0.710340
13270.000000,0.704320
13272.000000,0.698070
13274.000000,0.691560
13276.000000,0.684980
13278.000000,0.678210
13280.000000,0.671250
13282.000000,0.664150
13284.000000,0.656800
13286.000000,0.649340
13288.000000,0.641820
13290.000000,0.634050
13292.000000,0.626160
13294.000000,0.617970
13296.000000,0.609680
13298.000000,0.601380
13300.000000,0.592730
13302.000000,0.583980
13304.000000,0.575270
13306.000000,0.566280
13308.000000,0.557270
13310.000000,0.548170
13312.000000,0.539000
13314.000000,0.529560
13316.000000,0.520190
13318.000000,0.510590
13320.000000,0.500900
13322.000000,0.491290
13324.000000,0.481610
13326.000000,0.471890
13328.000000,0.462160
13330.000000,0.452240
13332.000000,0.442550
13334.000000,0.432800
13336.000000,0.422880
13338.000000,0.413150
13340.000000,0.403310
13342.000000,0.393620
13344.000000,0.383870
13346.000000,0.374330
13348.000000,0.364670
13350.000000,0.355190
13352.000000,0.345840
13354.000000,0.336460
13356.000000,0.327130
13358.000000,0.317840
13360.000000,0.308610
13362.000000,0.299670
13364.000000,0.290570
13366.000000,0.281650
13368.000000,0.273010
13370.000000,0.264450
13372.000000,0.256120
13374.000000,0.247530
13376.000000,0.239260
13378.000000,0.231170
13380.000000,0.223430
13382.000000,0.215670
13384.000000,0.208180
13386.000000,0.200780
13388.000000,0.193600
13390.000000,0.186710
13392.000000,0.179890
13394.000000,0.173320
13396.000000,0.166980
13398.000000,0.160840
13400.000000,0.154720
13402.000000,0.148850
13404.000000,0.143170
13406.000000,0.137660
13408.000000,0.132450
13410.000000,0.127210
13412.000000,0.122070
13414.000000,0.117250
13416.000000,0.112470
13418.000000,0.108020
13420.000000,0.103580
13422.000000,0.099350
13424.000000,0.095350
13426.000000,0.091400
13428.000000,0.087600
13430.000000,0.083970
13432.000000,0.080540
13434.000000,0.077150
13436.000000,0.073850
13438.000000,0.070920
13440.000000,0.067930
13442.000000,0.065160
13444.000000,0.062550
13446.000000,0.059920
13448.000000,0.057500
13450.000000,0.055050
13452.000000,0.052890
13454.000000,0.050630
13456.000000,0.048490
13458.000000,0.046490
13460.000000,0.044600
13462.000000,0.042760
13464.000000,0.040970
13466.000000,0.039410
13468.000000,0.037770
13470.000000,0.036160
13472.000000,0.034700
13474.000000,0.033280
13476.000000,0.031970
13478.000000,0.030730
13480.000000,0.029500
13482.000000,0.028370
13484.000000,0.027210
13486.000000,0.026180
13488.000000,0.025210
13490.000000,0.024290
13492.000000,0.023350
13494.000000,0.022450
13496.000000,0.021550
13498.000000,0.020710
13500.000000,0.019960
13502.000000,0.019260
13504.000000,0.018620
13506.000000,0.017910
13508.000000,0.017180
13510.000000,0.016480
13512.000000,0.015790
13514.000000,0.015230
13516.000000,0.014710
13518.000000,0.014220
13520.000000,0.013580
13522.000000,0.012970
13524.000000,0.012560
13526.000000,0.012080
13528.000000,0.011670
13530.000000,0.011220
13532.000000,0.010740
13534.000000,0.010310
13536.000000,0.009890
13538.000000,0.009550
13540.000000,0.009170
13542.000000,0.008960
13544.000000,0.008670
13546.000000,0.008270
13548.000000,0.007970
13550.000000,0.007690
13552.000000,0.007540
13554.000000,0.007370
13556.000000,0.007110
13558.000000,0.007000
13560.000000,0.006850
13562.000000,0.006620
13564.000000,0.006530
13566.000000,0.006260
13568.000000,0.006010
13570.000000,0.005800
13572.000000,0.005660
13574.000000,0.005460
13576.000000,0.005390
13578.000000,0.005250
13580.000000,0.005110
13582.000000,0.004790
13584.000000,0.004500
13586.000000,0.004320
13588.000000,0.004120
13590.000000,0.003850
13592.000000,0.003650
13594.000000,0.003510
13596.000000,0.003400
13598.000000,0.003330
13600.000000,0.003250
13602.000000,0.003200
13604.000000,0.003130
13606.000000,0.002910
13608.000000,0.002880
13610.000000,0.002780
13612.000000,0.002580
13614.000000,0.002520
13616.000000,0.002580
13618.000000,0.002380
13620.000000,0.002300
13622.000000,0.002230
