# NAME			HERSCHEL_SPIRE_PLW
# COMPNAME		HERSCHEL_SPIRE_PLW
# DETECTOR		photon
# WAVELENGTH_UNIT	AA
# COMMENT		https://nhscsci.ipac.caltech.edu/sc/index.php/Pacs/FilterCurves
#
## WAVELENGTH 	None 	AA
## THROUGHPUT 	None 	filter throughput definition
#
WAVELENGTH,THROUGHPUT
3348961.8,1.0175e-5
3359086.3,1.0044e-5
3370407.8,1.3223e-5
3381805.9,1.3377e-5
3393281.3,2.2469e-5
3404834.9,2.6388e-5
3415300.5,1.8860e-5
3427004.8,2.6192e-5
3438789.5,4.9804e-5
3450655.6,5.5927e-5
3462603.9,6.8844e-5
3473428.3,1.1014e-4
3485535.0,1.4397e-4
3497726.5,1.8289e-4
3510003.5,2.7825e-4
3521126.8,4.3321e-4
3533568.9,5.7985e-4
3546099.3,6.4321e-4
3558718.9,7.8576e-4
3571428.6,9.7828e-4
3582945.2,9.4399e-4
3595828.8,7.9311e-4
3608805.5,8.4291e-4
3621876.1,9.7061e-4
3635041.8,1.1086e-3
3646973.0,1.2882e-3
3660322.1,1.2002e-3
3673769.3,1.1912e-3
3687315.6,1.1858e-3
3699593.0,1.3261e-3
3713330.9,1.2911e-3
3727171.1,1.4148e-3
3741114.9,1.5196e-3
3755163.3,1.8436e-3
3767897.5,2.5506e-3
3782148.3,2.9686e-3
3796507.2,3.5843e-3
3810975.6,4.1411e-3
3825554.7,5.4229e-3
3838771.6,6.6411e-3
3853564.5,8.1303e-3
3868472.0,1.0333e-2
3883495.1,1.3049e-2
3897116.1,1.6378e-2
3912363.1,2.1408e-2
3927729.8,2.8756e-2
3943217.7,3.7835e-2
3958828.2,4.8873e-2
3972983.7,6.2802e-2
3988831.3,8.1352e-2
4004805.8,1.0359e-1
4020908.7,1.3142e-1
4037141.7,1.6933e-1
4051863.9,2.1457e-1
4068348.3,2.7286e-1
4084967.3,3.5728e-1
4101722.7,4.5983e-1
4116920.5,5.7740e-1
4133939.6,6.7391e-1
4151100.0,7.5490e-1
4168403.5,8.2903e-1
4185851.8,8.5385e-1
4201680.7,8.7198e-1
4219409.3,8.9484e-1
4237288.1,9.2031e-1
4255319.1,9.3697e-1
4271678.8,9.5934e-1
4290004.3,9.7191e-1
4308487.7,9.9184e-1
4327131.1,9.8857e-1
4345936.5,9.9837e-1
4363001.7,9.7159e-1
4382120.9,9.6718e-1
4401408.5,9.8122e-1
4420866.5,9.9804e-1
4440497.3,1.0000e+0
4458314.8,9.8824e-1
4478280.3,9.8890e-1
4498425.6,9.3811e-1
4518752.8,9.2276e-1
4537205.1,9.1737e-1
4557885.1,9.0349e-1
4578754.6,8.9598e-1
4599816.0,9.2374e-1
4621072.1,9.4971e-1
4640371.2,9.5346e-1
4662004.7,9.8449e-1
4683840.7,9.6522e-1
4705882.4,9.5003e-1
4728132.4,9.1362e-1
4748338.1,9.0317e-1
4770992.4,8.6414e-1
4793863.9,8.5614e-1
4816955.7,8.3687e-1
4837929.4,8.5941e-1
4861448.7,8.8243e-1
4885197.9,8.9647e-1
4909180.2,8.9794e-1
4933399.1,8.8063e-1
4955401.4,8.7720e-1
4980079.7,8.6790e-1
5005005.0,8.6904e-1
5030181.1,8.6545e-1
5055611.7,8.5157e-1
5078720.2,8.3083e-1
5104645.2,8.4389e-1
5130836.3,8.5794e-1
5157297.6,8.3491e-1
5181347.2,8.4455e-1
5208333.3,8.4700e-1
5235602.1,8.1826e-1
5263157.9,8.2136e-1
5291005.3,8.4471e-1
5316321.1,8.8749e-1
5344735.4,8.7492e-1
5373455.1,8.8357e-1
5402485.1,8.9239e-1
5431830.5,8.7247e-1
5458515.3,8.6986e-1
5488474.2,8.3834e-1
5518763.8,8.2691e-1
5549389.6,8.4389e-1
5577244.8,8.1842e-1
5608525.0,8.4357e-1
5640157.9,9.0431e-1
5672149.7,9.1525e-1
5704506.6,9.2685e-1
5733945.0,9.1901e-1
5767012.7,8.9631e-1
5800464.0,8.7198e-1
5834305.7,8.8406e-1
5865102.6,8.7508e-1
5899705.0,9.1215e-1
5934718.1,9.4693e-1
5970149.3,9.1933e-1
6006006.0,9.2276e-1
6038647.3,9.3419e-1
6075334.1,9.2831e-1
6112469.4,4.0186e-1
6150061.5,2.2240e-1
6188118.8,1.4788e-1
6222775.4,1.0730e-1
6261740.8,8.3459e-2
6301197.2,6.4582e-2
6341154.1,5.1813e-2
6377551.0,4.2260e-2
6418485.2,3.5059e-2
6459948.3,2.8674e-2
6501950.6,2.3334e-2
6544502.6,1.9530e-2
6583278.5,1.7799e-2
6626905.2,1.5394e-2
6671114.1,1.3145e-2
6715916.7,1.2240e-2
6761325.2,1.0996e-2
6802721.1,9.6995e-3
6849315.1,8.6169e-3
6896551.7,7.4543e-3
6944444.4,6.3325e-3
6988120.2,5.5781e-3
7037297.7,5.0294e-3
7087172.2,4.7322e-3
7137758.7,4.0774e-3
7189072.6,3.7851e-3
7235890.0,3.2805e-3
7288629.7,3.1744e-3
7342143.9,2.8805e-3
7396449.7,2.5898e-3
7451564.8,2.4461e-3
7501875.5,2.2567e-3
7558579.0,1.9040e-3
7616146.2,1.7472e-3
7674597.1,1.6786e-3
7727975.3,1.4997e-3
7788162.0,1.2738e-3
7849293.6,1.2170e-3
7911392.4,1.1042e-3
7974481.7,1.0885e-3
8032128.5,9.9118e-4
8097166.0,9.2929e-4
8163265.3,8.5222e-4
8230452.7,8.4324e-4
8298755.2,7.6715e-4
8361204.0,7.6061e-4
8431703.2,6.9448e-4
8503401.4,6.0679e-4
8576329.3,5.4115e-4
8643042.4,4.6326e-4
8718395.8,4.3452e-4
8795074.8,4.0431e-4
8873114.5,3.9860e-4
8952551.5,3.2560e-4
9025270.8,3.0944e-4
9107468.1,2.9262e-4
9191176.5,2.9719e-4
