# WAVELENGTH_UNIT	AA
# COMPNAME       	HST_WFC3_FQ889N
# NAME           	HST_WFC3_FQ889N
# DETECTOR       	photon
#
## WAVELENGTH	None	AA
## THROUGHPUT	None	filter throughput definition
#
WAVELENGTH,THROUGHPUT
1938.638306,0.000000
1939.638306,0.000000
1940.638306,0.000000
1950.639893,0.000000
1960.641357,0.000000
1970.643066,0.000000
1980.644653,0.000000
1990.646362,0.000000
2000.648193,0.000000
2010.649902,0.000000
2020.651733,0.000000
2030.653442,0.000000
2040.655273,0.000000
2050.656982,0.000000
2060.658936,0.000000
2070.660889,0.000000
2080.662842,0.000000
2090.664795,0.000000
2100.666748,0.000000
2110.668701,0.000000
2120.670654,0.000000
2130.672607,0.000000
2140.674561,0.000000
2150.676514,0.000000
2160.678711,0.000000
2170.680664,0.000000
2180.682861,0.000000
2190.684814,0.000000
2200.687012,0.000000
2210.688965,0.000000
2220.691162,0.000000
2230.693115,0.000000
2240.695312,0.000000
2250.697510,0.000000
2260.699707,0.000000
2270.701904,0.000000
2280.704102,0.000000
2290.706299,0.000000
2300.708496,0.000000
2310.710449,0.000000
2320.712891,0.000000
2330.715088,0.000000
2340.717285,0.000000
2350.719482,0.000000
2360.721680,0.000000
2370.723877,0.000000
2380.726074,0.000000
2390.728516,0.000000
2400.730713,0.000000
2410.732910,0.000000
2420.735107,0.000000
2430.737549,0.000000
2440.739746,0.000000
2450.742188,0.000000
2460.744385,0.000000
2470.746582,0.000000
2480.749023,0.000000
2490.751221,0.000000
2500.753662,0.000000
2510.756104,0.000000
2520.758301,0.000000
2530.760498,0.000000
2540.762939,0.000000
2550.765381,0.000000
2560.767578,0.000000
2570.770020,0.000000
2580.772461,0.000000
2590.774902,0.000000
2600.777100,0.000000
2610.779541,0.000000
2620.781982,0.000000
2630.784180,0.000000
2640.786621,0.000000
2650.789062,0.000000
2660.791504,0.000000
2670.793701,0.000000
2680.796143,0.000000
2690.798584,0.000000
2700.801025,0.000000
2710.803467,0.000000
2720.805908,0.000000
2730.808350,0.000000
2740.810791,0.000000
2750.812988,0.000000
2760.815674,0.000000
2770.818115,0.000000
2780.820312,0.000000
2790.822998,0.000000
2800.825195,0.000000
2810.827881,0.000000
2820.830078,0.000000
2830.832520,0.000000
2840.835205,0.000000
2850.837646,0.000000
2860.840088,0.000000
2870.842529,0.000000
2880.844971,0.000000
2890.847412,0.000000
2900.849854,0.000000
2910.852295,0.000000
2920.854736,0.000000
2930.857422,0.000000
2940.859863,0.000000
2950.862305,0.000000
2960.864746,0.000000
2970.867188,0.000000
2980.869629,0.000000
2990.872314,0.000000
3000.874756,0.000000
3010.877197,0.000000
3020.879639,0.000000
3030.882080,0.000000
3040.884766,0.000000
3050.887207,0.000000
3060.889648,0.000000
3070.892090,0.000000
3080.894775,0.000000
3090.897217,0.000000
3100.899658,0.000000
3110.902100,0.000000
3120.904785,0.000000
3130.907227,0.000000
3140.909912,0.000000
3150.912354,0.000000
3160.914795,0.000000
3170.917236,0.000000
3180.919922,0.000000
3190.922363,0.000000
3200.924805,0.000000
3210.927490,0.000000
3220.929932,0.000000
3230.932617,0.000000
3240.935059,0.000000
3250.937500,0.000000
3260.940186,0.000000
3270.942627,0.000000
3280.945312,0.000000
3290.947754,0.000000
3300.950195,0.000000
3310.952881,0.000000
3320.955322,0.000000
3330.958008,0.000000
3340.960449,0.000000
3350.962891,0.000000
3360.965576,0.000000
3370.968018,0.000000
3380.970703,0.000000
3390.973145,0.000000
3400.975830,0.000000
3410.978271,0.000000
3420.980957,0.000000
3430.983398,0.000000
3440.986084,0.000000
3450.988525,0.000000
3460.991211,0.000000
3470.993652,0.000000
3480.996338,0.000000
3490.998779,0.000000
3501.001465,0.000000
3511.003906,0.000000
3521.006592,0.000000
3531.009033,0.000000
3541.011719,0.000000
3551.014404,0.000000
3561.016846,0.000000
3571.019287,0.000000
3581.021973,0.000000
3591.024658,0.000000
3601.027100,0.000000
3611.029785,0.000000
3621.032227,0.000000
3631.034912,0.000000
3641.037598,0.000000
3651.040039,0.000000
3661.042480,0.000000
3671.045166,0.000000
3681.047852,0.000000
3691.050293,0.000000
3701.052979,0.000000
3711.055664,0.000000
3721.058105,0.000000
3731.060791,0.000000
3741.063232,0.000000
3751.065918,0.000000
3761.068604,0.000000
3771.071045,0.000000
3781.073730,0.000000
3791.076416,0.000000
3801.078857,0.000000
3811.081543,0.000000
3821.083984,0.000000
3831.086670,0.000000
3841.089355,0.000000
3851.091797,0.000000
3861.094482,0.000000
3871.097168,0.000000
3881.099609,0.000000
3891.102295,0.000000
3901.104980,0.000000
3911.107422,0.000000
3921.110107,0.000000
3931.112793,0.000000
3941.115479,0.000000
3951.117920,0.000000
3961.120605,0.000000
3971.123291,0.000000
3981.125732,0.000000
3991.128418,0.000000
4001.131104,0.000000
4011.133545,0.000000
4021.136230,0.000000
4031.138916,0.000000
4041.141602,0.000000
4051.144043,0.000000
4061.146729,0.000000
4071.149414,0.000000
4081.151855,0.000000
4091.154541,0.000000
4101.157227,0.000000
4111.159668,0.000000
4121.162598,0.000000
4131.165039,0.000000
4141.167480,0.000000
4151.170410,0.000000
4161.172852,0.000000
4171.175293,0.000000
4181.178223,0.000000
4191.180664,0.000000
4201.183594,0.000000
4211.186035,0.000000
4221.188477,0.000000
4231.191406,0.000000
4241.193848,0.000000
4251.196289,0.000000
4261.199219,0.000000
4271.201660,0.000000
4281.204590,0.000000
4291.207031,0.000000
4301.209473,0.000000
4311.212402,0.000000
4321.214844,0.000000
4331.217773,0.000000
4341.220215,0.000000
4351.222656,0.000000
4361.225586,0.000000
4371.228027,0.000000
4381.230469,0.000000
4391.233398,0.000000
4401.235840,0.000000
4411.238770,0.000000
4421.241211,0.000000
4431.244141,0.000000
4441.246582,0.000000
4451.249023,0.000000
4461.251953,0.000000
4471.254395,0.000000
4481.257324,0.000000
4491.259766,0.000000
4501.262207,0.000000
4511.265137,0.000000
4521.267578,0.000000
4531.270508,0.000000
4541.272949,0.000000
4551.275391,0.000000
4561.278320,0.000000
4571.280762,0.000000
4581.283691,0.000000
4591.286133,0.000000
4601.288574,0.000000
4611.291504,0.000000
4621.293945,0.000000
4631.296875,0.000000
4641.299316,0.000000
4651.301758,0.000000
4661.304688,0.000000
4671.307129,0.000000
4681.310059,0.000000
4691.312500,0.000000
4701.315430,0.000000
4711.317871,0.000000
4721.320312,0.000000
4731.323242,0.000000
4741.325684,0.000000
4751.328613,0.000000
4761.331055,0.000000
4771.333984,0.000000
4781.336426,0.000000
4791.338867,0.000000
4801.341797,0.000000
4811.344238,0.000000
4821.347168,0.000000
4831.349609,0.000000
4841.352539,0.000000
4851.354980,0.000000
4861.357422,0.000000
4871.360352,0.000000
4881.362793,0.000000
4891.365723,0.000000
4901.368164,0.000000
4911.371094,0.000000
4921.373535,0.000000
4931.375977,0.000000
4941.378906,0.000000
4951.381348,0.000000
4961.384277,0.000000
4971.386719,0.000000
4981.389648,0.000000
4991.392090,0.000000
5001.395020,0.000000
5011.397461,0.000000
5021.399902,0.000000
5031.402832,0.000000
5041.405273,0.000000
5051.408203,0.000000
5061.410645,0.000000
5071.413574,0.000000
5081.416016,0.000000
5091.418945,0.000000
5101.421387,0.000000
5111.424316,0.000000
5121.426758,0.000000
5131.429199,0.000000
5141.432129,0.000000
5151.434570,0.000000
5161.437500,0.000000
5171.439941,0.000000
5181.442871,0.000000
5191.445312,0.000000
5201.448242,0.000000
5211.450684,0.000000
5221.453613,0.000000
5231.456055,0.000000
5241.458496,0.000000
5251.461426,0.000000
5261.463867,0.000000
5271.466797,0.000000
5281.469238,0.000000
5291.472168,0.000000
5301.474609,0.000000
5311.477539,0.000000
5321.479980,0.000000
5331.482910,0.000000
5341.485352,0.000000
5351.487793,0.000000
5361.490723,0.000000
5371.493164,0.000000
5381.496094,0.000000
5391.498535,0.000000
5401.501465,0.000000
5411.503906,0.000000
5421.506836,0.000000
5431.509277,0.000000
5441.512207,0.000000
5451.514648,0.000000
5461.517578,0.000000
5471.520020,0.000000
5481.522461,0.000000
5491.525391,0.000000
5501.527832,0.000000
5511.530762,0.000000
5521.533203,0.000000
5531.536133,0.000000
5541.538574,0.000000
5551.541504,0.000000
5561.543945,0.000000
5571.546875,0.000000
5581.549316,0.000000
5591.552246,0.000000
5601.554688,0.000000
5611.557617,0.000000
5621.560059,0.000000
5631.562988,0.000000
5641.565430,0.000000
5651.567871,0.000000
5661.570801,0.000000
5671.573730,0.000000
5681.576172,0.000000
5691.578613,0.000000
5701.581543,0.000000
5711.583984,0.000000
5721.586914,0.000000
5731.589355,0.000000
5741.592285,0.000000
5751.594727,0.000000
5761.597656,0.000000
5771.600098,0.000000
5781.603027,0.000000
5791.605469,0.000000
5801.608398,0.000000
5811.610840,0.000000
5821.613770,0.000000
5831.616211,0.000000
5841.619141,0.000000
5851.621582,0.000000
5861.624512,0.000000
5871.626953,0.000000
5881.629883,0.000000
5891.632324,0.000000
5901.634766,0.000000
5911.637695,0.000000
5921.640625,0.000000
5931.643066,0.000000
5941.645508,0.000000
5951.648438,0.000000
5961.650879,0.000000
5971.653809,0.000000
5981.656738,0.000000
5991.659180,0.000000
6001.661621,0.000000
6011.664551,0.000000
6021.666992,0.000000
6031.669922,0.000000
6041.672363,0.000000
6051.675293,0.000000
6061.677734,0.000000
6071.680664,0.000000
6081.683105,0.000000
6091.686035,0.000000
6101.688477,0.000000
6111.691406,0.000000
6121.693848,0.000000
6131.696777,0.000000
6141.699219,0.000000
6151.702148,0.000000
6161.704590,0.000000
6171.707520,0.000000
6181.709961,0.000000
6191.712891,0.000000
6201.715332,0.000000
6211.718262,0.000000
6221.720703,0.000000
6231.723633,0.000000
6241.726074,0.000000
6251.729004,0.000000
6261.731445,0.000000
6271.734375,0.000000
6281.736816,0.000000
6291.739746,0.000000
6301.742188,0.000000
6311.745117,0.000000
6321.747559,0.000000
6331.750488,0.000000
6341.752930,0.000000
6351.755859,0.000000
6361.758301,0.000000
6371.761230,0.000000
6381.763672,0.000000
6391.766602,0.000000
6401.769043,0.000000
6411.771973,0.000000
6421.774414,0.000000
6431.777344,0.000000
6441.779785,0.000000
6451.782715,0.000000
6461.785156,0.000000
6471.788086,0.000000
6481.790527,0.000000
6491.793457,0.000000
6501.795898,0.000000
6511.798828,0.000000
6521.801270,0.000000
6531.804199,0.000000
6541.806641,0.000000
6551.809570,0.000000
6561.812012,0.000000
6571.814941,0.000000
6581.817383,0.000000
6591.820312,0.000000
6601.822754,0.000000
6611.825684,0.000000
6621.828125,0.000000
6631.831055,0.000000
6641.833496,0.000000
6651.836426,0.000000
6661.838867,0.000000
6671.841797,0.000000
6681.844238,0.000000
6691.847168,0.000000
6701.849609,0.000000
6711.852539,0.000000
6721.854980,0.000000
6731.857910,0.000000
6741.860352,0.000000
6751.863281,0.000000
6761.865723,0.000000
6771.868652,0.000000
6781.871094,0.000000
6791.874023,0.000000
6801.876465,0.000000
6811.879395,0.000000
6821.882324,0.000000
6831.884766,0.000000
6841.887695,0.000000
6851.890137,0.000000
6861.892578,0.000000
6871.895508,0.000000
6881.898438,0.000000
6891.900879,0.000000
6901.903809,0.000000
6911.906250,0.000000
6921.909180,0.000000
6931.911621,0.000000
6941.914551,0.000000
6951.916992,0.000000
6961.919922,0.000000
6971.922363,0.000000
6981.925293,0.000000
6991.927734,0.000000
7001.930664,0.000000
7011.933105,0.000000
7021.936035,0.000000
7031.938477,0.000000
7041.941406,0.000000
7051.943848,0.000000
7061.946777,0.000000
7071.949219,0.000000
7081.952148,0.000000
7091.954590,0.000000
7101.957520,0.000000
7111.959961,0.000000
7121.962891,0.000000
7131.965332,0.000000
7141.968262,0.000000
7151.970703,0.000000
7161.973633,0.000000
7171.976074,0.000000
7181.979004,0.000000
7191.981934,0.000000
7201.984375,0.000000
7211.987305,0.000000
7221.989746,0.000000
7231.992676,0.000000
7241.995117,0.000000
7251.998047,0.000000
7262.000488,0.000000
7272.003418,0.000000
7282.005859,0.000000
7292.008789,0.000000
7302.011230,0.000000
7312.014160,0.000001
7322.016602,0.000001
7332.019531,0.000001
7342.021973,0.000001
7352.024902,0.000001
7362.027344,0.000001
7372.030273,0.000001
7382.032715,0.000001
7392.035645,0.000001
7402.038086,0.000001
7412.041016,0.000001
7422.043457,0.000001
7432.046387,0.000001
7442.049316,0.000001
7452.051758,0.000001
7462.054688,0.000001
7472.057129,0.000001
7482.060059,0.000001
7492.062500,0.000001
7502.065430,0.000001
7512.067871,0.000001
7522.070801,0.000001
7532.073242,0.000001
7542.076172,0.000001
7552.078613,0.000001
7562.081543,0.000001
7572.083984,0.000001
7582.086914,0.000001
7592.089844,0.000001
7602.092285,0.000001
7612.095215,0.000001
7622.097656,0.000001
7632.100586,0.000001
7642.103027,0.000001
7652.105957,0.000001
7662.108398,0.000001
7672.111328,0.000001
7682.113770,0.000001
7692.116699,0.000002
7702.119141,0.000002
7712.122070,0.000002
7722.124512,0.000002
7732.127441,0.000002
7742.129883,0.000003
7752.132812,0.000003
7762.135254,0.000003
7772.138184,0.000003
7782.140625,0.000002
7792.143555,0.000001
7802.145996,0.000001
7812.148926,0.000000
7822.151367,0.000000
7832.154297,0.000000
7842.157227,0.000000
7852.159668,0.000000
7862.162598,0.000000
7872.165039,0.000000
7882.167969,0.000000
7892.170410,0.000000
7902.173340,0.000000
7912.175781,0.000000
7922.178711,0.000000
7932.181152,0.000000
7942.184082,0.000000
7952.186523,0.000000
7962.189453,0.000000
7972.191895,0.000000
7982.194824,0.000000
7992.197754,0.000000
8002.200195,0.000000
8012.203125,0.000000
8022.205566,0.000000
8032.208496,0.000000
8042.210938,0.000000
8052.213867,0.000000
8062.216309,0.000000
8072.219238,0.000000
8082.221680,0.000000
8092.224609,0.000000
8102.227539,0.000000
8112.229980,0.000000
8122.232910,0.000000
8132.235352,0.000000
8142.238281,0.000000
8152.240723,0.000000
8162.243652,0.000000
8172.246094,0.000000
8182.249023,0.000000
8192.251953,0.000000
8202.253906,0.000000
8212.256836,0.000000
8222.259766,0.000000
8232.262695,0.000000
8242.264648,0.000000
8252.267578,0.000000
8262.270508,0.000000
8272.273438,0.000000
8282.276367,0.000000
8292.278320,0.000000
8302.281250,0.000000
8312.284180,0.000000
8322.287109,0.000000
8332.289062,0.000000
8342.291992,0.000000
8352.294922,0.000000
8362.297852,0.000000
8372.299805,0.000000
8382.302734,0.000000
8392.305664,0.000000
8402.308594,0.000000
8412.310547,0.000000
8422.313477,0.000000
8432.316406,0.000000
8442.319336,0.000000
8452.322266,0.000000
8462.324219,0.000000
8472.327148,0.000000
8482.330078,0.000000
8492.333008,0.000000
8502.334961,0.000019
8512.337891,0.000016
8522.340820,0.000035
8532.343750,0.000031
8542.346680,0.000029
8552.348633,0.000037
8562.351562,0.000049
8572.354492,0.000055
8582.357422,0.000063
8592.359375,0.000069
8602.362305,0.000085
8818.420898,0.017227
8820.421875,0.021446
8822.421875,0.037634
8824.422852,0.043442
8826.422852,0.040158
8828.423828,0.051179
8830.423828,0.065844
8832.424805,0.093761
8834.424805,0.095805
8836.425781,0.140189
8838.426758,0.175425
8840.426758,0.225238
8842.427734,0.288541
8844.427734,0.354038
8846.428711,0.432392
8848.428711,0.505894
8850.429688,0.584854
8852.429688,0.645732
8854.430664,0.720427
8856.430664,0.754284
8858.431641,0.801499
8860.432617,0.829599
8862.432617,0.848019
8864.433594,0.857027
8866.433594,0.858868
8868.434570,0.875861
8870.434570,0.864142
8872.435547,0.874594
8874.435547,0.876825
8876.436523,0.876888
8878.437500,0.884012
8880.437500,0.880084
8882.438477,0.880900
8884.438477,0.891758
8886.439453,0.891448
8888.439453,0.897015
8890.440430,0.885087
8892.440430,0.895935
8894.441406,0.892186
8896.442383,0.892875
8898.442383,0.896764
8900.443359,0.899596
8902.443359,0.893851
8904.444336,0.891344
8906.444336,0.898156
8908.445312,0.900187
8910.445312,0.903931
8912.446289,0.896200
8914.447266,0.893518
8916.447266,0.893444
8918.448242,0.899679
8920.448242,0.883337
8922.449219,0.893967
8924.449219,0.873037
8926.450195,0.858583
8928.450195,0.827591
8930.451172,0.787150
8932.452148,0.743323
8934.452148,0.684926
8936.453125,0.614439
8938.453125,0.537760
8940.454102,0.460572
8942.454102,0.389263
8944.455078,0.309587
8946.455078,0.258740
8948.456055,0.194267
8950.457031,0.162670
8952.457031,0.113386
8954.458008,0.101538
8956.458008,0.079413
8958.458984,0.059902
8960.458984,0.054733
8962.459961,0.044722
8964.459961,0.036894
8966.460938,0.040532
8968.460938,0.021667
8970.461914,0.020372
8972.462891,0.017844
8974.462891,0.016689
8976.463867,0.016823
8978.463867,0.014755
8980.464844,0.011593
8982.464844,0.015292
8984.465820,0.017336
8986.465820,0.014231
8988.466797,0.006086
8990.467773,0.012370
9172.516602,0.000055
9182.519531,0.000035
9192.522461,0.000025
9202.524414,0.000019
9212.527344,0.000016
9222.530273,0.000013
9232.533203,0.000010
9242.535156,0.000008
9252.538086,0.000006
9262.541016,0.000005
9272.543945,0.000006
9282.546875,0.000000
9292.548828,0.000001
9302.551758,0.000002
9312.554688,0.000002
9322.557617,0.000001
9332.559570,0.000003
9342.562500,0.000001
9352.565430,0.000002
9362.568359,0.000000
9372.570312,0.000001
9382.573242,0.000001
9392.576172,0.000002
9402.579102,0.000001
9412.582031,0.000002
9422.583984,0.000000
9432.586914,0.000000
9442.589844,0.000000
9452.592773,0.000000
9462.594727,0.000001
9472.597656,0.000002
9482.600586,0.000001
9492.603516,0.000000
9502.606445,0.000001
9512.608398,0.000001
9522.611328,0.000000
9532.614258,0.000001
9542.617188,0.000001
9552.619141,0.000000
9562.622070,0.000001
9572.625000,0.000000
9582.627930,0.000000
9592.630859,0.000001
9602.632812,0.000000
9612.635742,0.000000
9622.638672,0.000001
9632.641602,0.000000
9642.643555,0.000001
9652.646484,0.000000
9662.649414,0.000002
9672.652344,0.000001
9682.655273,0.000001
9692.657227,0.000001
9702.660156,0.000000
9712.663086,0.000000
9722.666016,0.000000
9732.667969,0.000001
9742.670898,0.000000
9752.673828,0.000001
9762.676758,0.000000
9772.679688,0.000000
9782.681641,0.000001
9792.684570,0.000000
9802.687500,0.000000
9812.690430,0.000001
9822.692383,0.000000
9832.695312,0.000002
9842.698242,0.000001
9852.701172,0.000001
9862.703125,0.000000
9872.706055,0.000000
9882.708984,0.000000
9892.711914,0.000002
9902.714844,0.000000
9912.716797,0.000000
9922.719727,0.000000
9932.722656,0.000000
9942.725586,0.000000
9952.727539,0.000000
9962.730469,0.000000
9972.733398,0.000001
9982.736328,0.000000
9992.739258,0.000000
10002.741211,0.000000
10012.744141,0.000000
10022.747070,0.000000
10032.750000,0.000001
10042.751953,0.000000
10052.754883,0.000000
10062.757812,0.000000
10072.759766,0.000001
10082.762695,0.000000
10092.765625,0.000000
10102.768555,0.000001
10112.771484,0.000001
10122.774414,0.000000
10132.777344,0.000000
10142.779297,0.000000
10152.782227,0.000000
10162.785156,0.000001
10172.788086,0.000001
10182.790039,0.000000
10192.792969,0.000000
10202.795898,0.000000
10212.797852,0.000000
10222.800781,0.000000
10232.803711,0.000000
10242.806641,0.000000
10252.808594,0.000001
10262.811523,0.000000
10272.815430,0.000001
10282.817383,0.000001
10292.820312,0.000000
10302.823242,0.000000
10312.826172,0.000000
10322.828125,0.000000
10332.831055,0.000001
10342.833984,0.000000
10352.835938,0.000001
10362.838867,0.000000
10372.841797,0.000000
10382.843750,0.000000
10392.846680,0.000001
10402.849609,0.000000
10412.852539,0.000001
10422.855469,0.000000
10432.858398,0.000000
10442.861328,0.000001
10452.863281,0.000000
10462.866211,0.000001
10472.869141,0.000000
10482.872070,0.000000
10492.874023,0.000001
10502.876953,0.000000
10512.879883,0.000000
10522.881836,0.000000
10532.884766,0.000000
10542.887695,0.000000
10552.890625,0.000000
10562.892578,0.000000
10572.896484,0.000000
10582.899414,0.000000
10592.901367,0.000000
10602.904297,0.000001
10612.907227,0.000000
10622.910156,0.000001
10632.912109,0.000000
10642.915039,0.000000
10652.917969,0.000000
10662.919922,0.000000
10672.922852,0.000001
10682.925781,0.000000
10692.928711,0.000000
10702.930664,0.000000
10712.933594,0.000000
10722.936523,0.000000
10732.939453,0.000000
10742.942383,0.000000
10752.945312,0.000000
10762.948242,0.000000
10772.950195,0.000000
10782.953125,0.000000
10792.956055,0.000000
10802.958008,0.000000
10812.960938,0.000000
10822.963867,0.000000
10832.966797,0.000000
10842.968750,0.000000
10852.971680,0.000000
10862.974609,0.000000
10872.976562,0.000000
10882.980469,0.000000
10892.983398,0.000000
10902.986328,0.000000
10912.988281,0.000000
10922.991211,0.000000
10932.994141,0.000000
10942.996094,0.000001
10952.999023,0.000000
10963.001953,0.000000
10973.004883,0.000000
10983.006836,0.000000
10993.009766,0.000001
11003.012695,0.000000
11004.012695,0.000000
11005.012695,0.000000
