# WAVELENGTH_UNIT	nanometer
# COMPNAME       	ZTF_i
# NAME           	ZTF_i
# DETECTOR       	photon
#
## WAVELENGTH	None	nanometer
## THROUGHPUT	None	filter throughput definition
#
WAVELENGTH,THROUGHPUT
1100.0,0.372344
1099.8,0.3607
1099.6,0.349056
1099.4,0.337412
1099.2,0.325768
1099.0,0.314124
1098.8,0.3043414
1098.6,0.2945588
1098.4,0.2847762
1098.2,0.2749936
1098.0,0.265211
1097.8,0.2584078
1097.6,0.2516046
1097.4,0.2448014
1097.2,0.2379982
1097.0,0.231195
1096.8,0.2257412
1096.6,0.2202874
1096.4,0.2148336
1096.2,0.2093798
1096.0,0.203926
1095.8,0.1988574
1095.6,0.1937888
1095.4,0.1887202
1095.2,0.1836516
1095.0,0.178583
1094.8,0.173529
1094.6,0.168475
1094.4,0.163421
1094.2,0.158367
1094.0,0.153313
1093.8,0.1498946
1093.6,0.1464762
1093.4,0.1430578
1093.2,0.1396394
1093.0,0.136221
1092.8,0.132394
1092.6,0.128567
1092.4,0.12474
1092.2,0.120913
1092.0,0.117086
1091.8,0.1143434
1091.6,0.1116008
1091.4,0.1088582
1091.2,0.1061156
1091.0,0.103373
1090.8,0.1003968
1090.6,0.0974206
1090.4,0.0944444
1090.2,0.0914682
1090.0,0.088492
1089.8,0.0858528
1089.6,0.0832136
1089.4,0.0805744
1089.2,0.0779352
1089.0,0.075296
1088.8,0.0741636
1088.6,0.0730312
1088.4,0.0718988
1088.2,0.0707664
1088.0,0.069634
1087.8,0.068871
1087.6,0.068108
1087.4,0.067345
1087.2,0.066582
1087.0,0.065819
1086.8,0.0635358
1086.6,0.0612526
1086.4,0.0589694
1086.2,0.0566862
1086.0,0.054403
1085.8,0.0537074
1085.6,0.0530118
1085.4,0.0523162
1085.2,0.0516206
1085.0,0.050925
1084.8,0.0497104
1084.6,0.0484958
1084.4,0.0472812
1084.2,0.0460666
1084.0,0.044852
1083.8,0.0442392
1083.6,0.0436264
1083.4,0.0430136
1083.2,0.0424008
1083.0,0.041788
1082.8,0.0400946
1082.6,0.0384012
1082.4,0.0367078
1082.2,0.0350144
1082.0,0.033321
1081.8,0.0337648
1081.6,0.0342086
1081.4,0.0346524
1081.2,0.0350962
1081.0,0.03554
1080.8,0.0350734
1080.6,0.0346068
1080.4,0.0341402
1080.2,0.0336736
1080.0,0.033207
1079.8,0.0331968
1079.6,0.0331866
1079.4,0.0331764
1079.2,0.0331662
1079.0,0.033156
1078.8,0.0315652
1078.6,0.0299744
1078.4,0.0283836
1078.2,0.0267928
1078.0,0.025202
1077.8,0.0250902
1077.6,0.0249784
1077.4,0.0248666
1077.2,0.0247548
1077.0,0.024643
1076.8,0.0244358
1076.6,0.0242286
1076.4,0.0240214
1076.2,0.0238142
1076.0,0.023607
1075.8,0.0228242
1075.6,0.0220414
1075.4,0.0212586
1075.2,0.0204758
1075.0,0.019693
1074.8,0.019743
1074.6,0.019793
1074.4,0.019843
1074.2,0.019893
1074.0,0.019943
1073.8,0.0194314
1073.6,0.0189198
1073.4,0.0184082
1073.2,0.0178966
1073.0,0.017385
1072.8,0.0176332
1072.6,0.0178814
1072.4,0.0181296
1072.2,0.0183778
1072.0,0.018626
1071.8,0.0182716
1071.6,0.0179172
1071.4,0.0175628
1071.2,0.0172084
1071.0,0.016854
1070.8,0.0158794
1070.6,0.0149048
1070.4,0.0139302
1070.2,0.0129556
1070.0,0.011981
1069.8,0.0116772
1069.6,0.0113734
1069.4,0.0110696
1069.2,0.0107658
1069.0,0.010462
1068.8,0.0107476
1068.6,0.0110332
1068.4,0.0113188
1068.2,0.0116044
1068.0,0.01189
1067.8,0.0121754
1067.6,0.0124608
1067.4,0.0127462
1067.2,0.0130316
1067.0,0.013317
1066.8,0.01222
1066.6,0.011123
1066.4,0.010026
1066.2,0.008929
1066.0,0.007832
1065.8,0.0082238
1065.6,0.0086156
1065.4,0.0090074
1065.2,0.0093992
1065.0,0.009791
1064.8,0.0101
1064.6,0.010409
1064.4,0.010718
1064.2,0.011027
1064.0,0.011336
1063.8,0.011017
1063.6,0.010698
1063.4,0.010379
1063.2,0.01006
1063.0,0.009741
1062.8,0.0090672
1062.6,0.0083934
1062.4,0.0077196
1062.2,0.0070458
1062.0,0.006372
1061.8,0.006692
1061.6,0.007012
1061.4,0.007332
1061.2,0.007652
1061.0,0.007972
1060.8,0.0070274
1060.6,0.0060828
1060.4,0.0051382
1060.2,0.0041936
1060.0,0.003249
1059.8,0.0036388
1059.6,0.0040286
1059.4,0.0044184
1059.2,0.0048082
1059.0,0.005198
1058.8,0.0047518
1058.6,0.0043056
1058.4,0.0038594
1058.2,0.0034132
1058.0,0.002967
1057.8,0.0031624
1057.6,0.0033578
1057.4,0.0035532
1057.2,0.0037486
1057.0,0.003944
1056.8,0.0039736
1056.6,0.0040032
1056.4,0.0040328
1056.2,0.0040624
1056.0,0.004092
1055.8,0.0037106
1055.6,0.0033292
1055.4,0.0029478
1055.2,0.0025664
1055.0,0.002185
1054.8,0.0017758
1054.6,0.0013666
1054.4,0.0009574
1054.2,0.0005482
1054.0,0.000139
1053.8,0.000442
1053.6,0.000745
1053.4,0.001048
1053.2,0.001351
1053.0,0.001654
1052.8,0.0016214
1052.6,0.0015888
1052.4,0.0015562
1052.2,0.0015236
1052.0,0.001491
1051.8,0.0015576
1051.6,0.0016242
1051.4,0.0016908
1051.2,0.0017574
1051.0,0.001824
1050.8,0.0014948
1050.6,0.0011656
1050.4,0.0008364
1050.2,0.0005072
1050.0,0.000178
1049.8,0.0003476
1049.6,0.0005172
1049.4,0.0006868
1049.2,0.0008564
1049.0,0.001026
1048.8,0.0012968
1048.6,0.0015676
1048.4,0.0018384
1048.2,0.0021092
1048.0,0.00238
1047.8,0.0022658
1047.6,0.0021516
1047.4,0.0020374
1047.2,0.0019232
1047.0,0.001809
1046.8,0.002392
1046.6,0.002975
1046.4,0.003558
1046.2,0.004141
1046.0,0.004724
1045.8,0.0039322
1045.6,0.0031404
1045.4,0.0023486
1045.2,0.0015568
1045.0,0.000765
1044.8,0.0006902
1044.6,0.0006154
1044.4,0.0005406
1044.2,0.0004658
1044.0,0.000391
1043.8,0.0007314
1043.6,0.0010718
1043.4,0.0014122
1043.2,0.0017526
1043.0,0.002093
1042.8,0.0021154
1042.6,0.0021378
1042.4,0.0021602
1042.2,0.0021826
1042.0,0.002205
1041.8,0.0018146
1041.6,0.0014242
1041.4,0.0010338
1041.2,0.0006434
1041.0,0.000253
1040.8,0.0003268
1040.6,0.0004006
1040.4,0.0004744
1040.2,0.0005482
1040.0,0.000622
1039.8,0.0006218
1039.6,0.0006216
1039.4,0.0006214
1039.2,0.0006212
1039.0,0.000621
1038.8,0.0010256
1038.6,0.0014302
1038.4,0.0018348
1038.2,0.0022394
1038.0,0.002644
1037.8,0.003138
1037.6,0.003632
1037.4,0.004126
1037.2,0.00462
1037.0,0.005114
1036.8,0.0043696
1036.6,0.0036252
1036.4,0.0028808
1036.2,0.0021364
1036.0,0.001392
1035.8,0.0013498
1035.6,0.0013076
1035.4,0.0012654
1035.2,0.0012232
1035.0,0.001181
1034.8,0.0010222
1034.6,0.0008634
1034.4,0.0007046
1034.2,0.0005458
1034.0,0.000387
1033.8,0.0003134
1033.6,0.0002398
1033.4,0.0001662
1033.2,9.26E-05
1033.0,1.9E-05
1032.8,0.000634
1032.6,0.001249
1032.4,0.001864
1032.2,0.002479
1032.0,0.003094
1031.8,0.0028766
1031.6,0.0026592
1031.4,0.0024418
1031.2,0.0022244
1031.0,0.002007
1030.8,0.001764
1030.6,0.001521
1030.4,0.001278
1030.2,0.001035
1030.0,0.000792
1029.8,0.0007574
1029.6,0.0007228
1029.4,0.0006882
1029.2,0.0006536
1029.0,0.000619
1028.8,0.0008512
1028.6,0.0010834
1028.4,0.0013156
1028.2,0.0015478
1028.0,0.00178
1027.8,0.0018098
1027.6,0.0018396
1027.4,0.0018694
1027.2,0.0018992
1027.0,0.001929
1026.8,0.002359
1026.6,0.002789
1026.4,0.003219
1026.2,0.003649
1026.0,0.004079
1025.8,0.0036844
1025.6,0.0032898
1025.4,0.0028952
1025.2,0.0025006
1025.0,0.002106
1024.8,0.0020872
1024.6,0.0020684
1024.4,0.0020496
1024.2,0.0020308
1024.0,0.002012
1023.8,0.0021664
1023.6,0.0023208
1023.4,0.0024752
1023.2,0.0026296
1023.0,0.002784
1022.8,0.0026872
1022.6,0.0025904
1022.4,0.0024936
1022.2,0.0023968
1022.0,0.0023
1021.8,0.0019174
1021.6,0.0015348
1021.4,0.0011522
1021.2,0.0007696
1021.0,0.000387
1020.8,0.000511
1020.6,0.000635
1020.4,0.000759
1020.2,0.000883
1020.0,0.001007
1019.8,0.0013018
1019.6,0.0015966
1019.4,0.0018914
1019.2,0.0021862
1019.0,0.002481
1018.8,0.002497
1018.6,0.002513
1018.4,0.002529
1018.2,0.002545
1018.0,0.002561
1017.8,0.0020954
1017.6,0.0016298
1017.4,0.0011642
1017.2,0.0006986
1017.0,0.000233
1016.8,0.0006796
1016.6,0.0011262
1016.4,0.0015728
1016.2,0.0020194
1016.0,0.002466
1015.8,0.002035
1015.6,0.001604
1015.4,0.001173
1015.2,0.000742
1015.0,0.000311
1014.8,0.0003306
1014.6,0.0003502
1014.4,0.0003698
1014.2,0.0003894
1014.0,0.000409
1013.8,0.0004326
1013.6,0.0004562
1013.4,0.0004798
1013.2,0.0005034
1013.0,0.000527
1012.8,0.0004842
1012.6,0.0004414
1012.4,0.0003986
1012.2,0.0003558
1012.0,0.000313
1011.8,0.000795
1011.6,0.001277
1011.4,0.001759
1011.2,0.002241
1011.0,0.002723
1010.8,0.0024252
1010.6,0.0021274
1010.4,0.0018296
1010.2,0.0015318
1010.0,0.001234
1009.8,0.001211
1009.6,0.001188
1009.4,0.001165
1009.2,0.001142
1009.0,0.001119
1008.8,0.0014352
1008.6,0.0017514
1008.4,0.0020676
1008.2,0.0023838
1008.0,0.0027
1007.8,0.0025898
1007.6,0.0024796
1007.4,0.0023694
1007.2,0.0022592
1007.0,0.002149
1006.8,0.001877
1006.6,0.001605
1006.4,0.001333
1006.2,0.001061
1006.0,0.000789
1005.8,0.0008054
1005.6,0.0008218
1005.4,0.0008382
1005.2,0.0008546
1005.0,0.000871
1004.8,0.0007444
1004.6,0.0006178
1004.4,0.0004912
1004.2,0.0003646
1004.0,0.000238
1003.8,0.000593
1003.6,0.000948
1003.4,0.001303
1003.2,0.001658
1003.0,0.002013
1002.8,0.0017222
1002.6,0.0014314
1002.4,0.0011406
1002.2,0.0008498
1002.0,0.000559
1001.8,0.000539
1001.6,0.000519
1001.4,0.000499
1001.2,0.000479
1001.0,0.000459
1000.8,0.0007518
1000.6,0.0010446
1000.4,0.0013374
1000.2,0.0016302
1000.0,0.001923
999.8,0.0015586
999.6,0.0011942
999.4,0.0008298
999.2,0.0004654
999.0,0.000101
998.8,0.0001412
998.6,0.0001814
998.4,0.0002216
998.2,0.0002618
998.0,0.000302
997.8,0.0003876
997.6,0.0004732
997.4,0.0005588
997.2,0.0006444
997.0,0.00073
996.8,0.0011856
996.6,0.0016412
996.4,0.0020968
996.2,0.0025524
996.0,0.003008
995.8,0.0025366
995.6,0.0020652
995.4,0.0015938
995.2,0.0011224
995.0,0.000651
994.8,0.0014254
994.6,0.0021998
994.4,0.0029742
994.2,0.0037486
994.0,0.004523
993.8,0.0039346
993.6,0.0033462
993.4,0.0027578
993.2,0.0021694
993.0,0.001581
992.8,0.0013348
992.6,0.0010886
992.4,0.0008424
992.2,0.0005962
992.0,0.00035
991.8,0.0006992
991.6,0.0010484
991.4,0.0013976
991.2,0.0017468
991.0,0.002096
990.8,0.001893
990.6,0.00169
990.4,0.001487
990.2,0.001284
990.0,0.001081
989.8,0.001379
989.6,0.001677
989.4,0.001975
989.2,0.002273
989.0,0.002571
988.8,0.0024268
988.6,0.0022826
988.4,0.0021384
988.2,0.0019942
988.0,0.00185
987.8,0.0017164
987.6,0.0015828
987.4,0.0014492
987.2,0.0013156
987.0,0.001182
986.8,0.0010474
986.6,0.0009128
986.4,0.0007782
986.2,0.0006436
986.0,0.000509
985.8,0.0004584
985.6,0.0004078
985.4,0.0003572
985.2,0.0003066
985.0,0.000256
984.8,0.0008576
984.6,0.0014592
984.4,0.0020608
984.2,0.0026624
984.0,0.003264
983.8,0.0026586
983.6,0.0020532
983.4,0.0014478
983.2,0.0008424
983.0,0.000237
982.8,0.0007962
982.6,0.0013554
982.4,0.0019146
982.2,0.0024738
982.0,0.003033
981.8,0.0026362
981.6,0.0022394
981.4,0.0018426
981.2,0.0014458
981.0,0.001049
980.8,0.0010498
980.6,0.0010506
980.4,0.0010514
980.2,0.0010522
980.0,0.001053
979.8,0.0009836
979.6,0.0009142
979.4,0.0008448
979.2,0.0007754
979.0,0.000706
978.8,0.0006584
978.6,0.0006108
978.4,0.0005632
978.2,0.0005156
978.0,0.000468
977.8,0.001149
977.6,0.00183
977.4,0.002511
977.2,0.003192
977.0,0.003873
976.8,0.0039646
976.6,0.0040562
976.4,0.0041478
976.2,0.0042394
976.0,0.004331
975.8,0.0040328
975.6,0.0037346
975.4,0.0034364
975.2,0.0031382
975.0,0.00284
974.8,0.0030278
974.6,0.0032156
974.4,0.0034034
974.2,0.0035912
974.0,0.003779
973.8,0.003281
973.6,0.002783
973.4,0.002285
973.2,0.001787
973.0,0.001289
972.8,0.0010542
972.6,0.0008194
972.4,0.0005846
972.2,0.0003498
972.0,0.000115
971.8,0.0005976
971.6,0.0010802
971.4,0.0015628
971.2,0.0020454
971.0,0.002528
970.8,0.002173
970.6,0.001818
970.4,0.001463
970.2,0.001108
970.0,0.000753
969.8,0.0007354
969.6,0.0007178
969.4,0.0007002
969.2,0.0006826
969.0,0.000665
968.8,0.0008004
968.6,0.0009358
968.4,0.0010712
968.2,0.0012066
968.0,0.001342
967.8,0.0013056
967.6,0.0012692
967.4,0.0012328
967.2,0.0011964
967.0,0.00116
966.8,0.0011376
966.6,0.0011152
966.4,0.0010928
966.2,0.0010704
966.0,0.001048
965.8,0.0010102
965.6,0.0009724
965.4,0.0009346
965.2,0.0008968
965.0,0.000859
964.8,0.0007666
964.6,0.0006742
964.4,0.0005818
964.2,0.0004894
964.0,0.000397
963.8,0.0005778
963.6,0.0007586
963.4,0.0009394
963.2,0.0011202
963.0,0.001301
962.8,0.0016842
962.6,0.0020674
962.4,0.0024506
962.2,0.0028338
962.0,0.003217
961.8,0.002905
961.6,0.002593
961.4,0.002281
961.2,0.001969
961.0,0.001657
960.8,0.0017428
960.6,0.0018286
960.4,0.0019144
960.2,0.0020002
960.0,0.002086
959.8,0.0022736
959.6,0.0024612
959.4,0.0026488
959.2,0.0028364
959.0,0.003024
958.8,0.003045
958.6,0.003066
958.4,0.003087
958.2,0.003108
958.0,0.003129
957.8,0.0027314
957.6,0.0023338
957.4,0.0019362
957.2,0.0015386
957.0,0.001141
956.8,0.0011332
956.6,0.0011254
956.4,0.0011176
956.2,0.0011098
956.0,0.001102
955.8,0.0010554
955.6,0.0010088
955.4,0.0009622
955.2,0.0009156
955.0,0.000869
954.8,0.0011786
954.6,0.0014882
954.4,0.0017978
954.2,0.0021074
954.0,0.002417
953.8,0.0024232
953.6,0.0024294
953.4,0.0024356
953.2,0.0024418
953.0,0.002448
952.8,0.0022506
952.6,0.0020532
952.4,0.0018558
952.2,0.0016584
952.0,0.001461
951.8,0.001368
951.6,0.001275
951.4,0.001182
951.2,0.001089
951.0,0.000996
950.8,0.000843
950.6,0.00069
950.4,0.000537
950.2,0.000384
950.0,0.000231
949.8,0.0004478
949.6,0.0006646
949.4,0.0008814
949.2,0.0010982
949.0,0.001315
948.8,0.001342
948.6,0.001369
948.4,0.001396
948.2,0.001423
948.0,0.00145
947.8,0.001184
947.6,0.000918
947.4,0.000652
947.2,0.000386
947.0,0.00012
946.8,0.000218
946.6,0.000316
946.4,0.000414
946.2,0.000512
946.0,0.00061
945.8,0.000556
945.6,0.000502
945.4,0.000448
945.2,0.000394
945.0,0.00034
944.8,0.0003286
944.6,0.0003172
944.4,0.0003058
944.2,0.0002944
944.0,0.000283
943.8,0.0009926
943.6,0.0017022
943.4,0.0024118
943.2,0.0031214
943.0,0.003831
942.8,0.0034018
942.6,0.0029726
942.4,0.0025434
942.2,0.0021142
942.0,0.001685
941.8,0.0021056
941.6,0.0025262
941.4,0.0029468
941.2,0.0033674
941.0,0.003788
940.8,0.003754
940.6,0.00372
940.4,0.003686
940.2,0.003652
940.0,0.003618
939.8,0.0037754
939.6,0.0039328
939.4,0.0040902
939.2,0.0042476
939.0,0.004405
938.8,0.003524
938.6,0.002643
938.4,0.001762
938.2,0.000881
938.0,-2.98372E-16
937.8,0.0012162
937.6,0.0024324
937.4,0.0036486
937.2,0.0048648
937.0,0.006081
936.8,0.0055356
936.6,0.0049902
936.4,0.0044448
936.2,0.0038994
936.0,0.003354
935.8,0.0029712
935.6,0.0025884
935.4,0.0022056
935.2,0.0018228
935.0,0.00144
934.8,0.0018062
934.6,0.0021724
934.4,0.0025386
934.2,0.0029048
934.0,0.003271
933.8,0.0034796
933.6,0.0036882
933.4,0.0038968
933.2,0.0041054
933.0,0.004314
932.8,0.0039732
932.6,0.0036324
932.4,0.0032916
932.2,0.0029508
932.0,0.00261
931.8,0.0025048
931.6,0.0023996
931.4,0.0022944
931.2,0.0021892
931.0,0.002084
930.8,0.0018598
930.6,0.0016356
930.4,0.0014114
930.2,0.0011872
930.0,0.000963
929.8,0.001059
929.6,0.001155
929.4,0.001251
929.2,0.001347
929.0,0.001443
928.8,0.0023358
928.6,0.0032286
928.4,0.0041214
928.2,0.0050142
928.0,0.005907
927.8,0.0055674
927.6,0.0052278
927.4,0.0048882
927.2,0.0045486
927.0,0.004209
926.8,0.0036528
926.6,0.0030966
926.4,0.0025404
926.2,0.0019842
926.0,0.001428
925.8,0.001738
925.6,0.002048
925.4,0.002358
925.2,0.002668
925.0,0.002978
924.8,0.0032872
924.6,0.0035964
924.4,0.0039056
924.2,0.0042148
924.0,0.004524
923.8,0.0045866
923.6,0.0046492
923.4,0.0047118
923.2,0.0047744
923.0,0.004837
922.8,0.004336
922.6,0.003835
922.4,0.003334
922.2,0.002833
922.0,0.002332
921.8,0.0031682
921.6,0.0040044
921.4,0.0048406
921.2,0.0056768
921.0,0.006513
920.8,0.0065892
920.6,0.0066654
920.4,0.0067416
920.2,0.0068178
920.0,0.006894
919.8,0.006791
919.6,0.006688
919.4,0.006585
919.2,0.006482
919.0,0.006379
918.8,0.0074266
918.6,0.0084742
918.4,0.0095218
918.2,0.0105694
918.0,0.011617
917.8,0.0116268
917.6,0.0116366
917.4,0.0116464
917.2,0.0116562
917.0,0.011666
916.8,0.011291
916.6,0.010916
916.4,0.010541
916.2,0.010166
916.0,0.009791
915.8,0.009508
915.6,0.009225
915.4,0.008942
915.2,0.008659
915.0,0.008376
914.8,0.0107062
914.6,0.0130364
914.4,0.0153666
914.2,0.0176968
914.0,0.020027
913.8,0.0196342
913.6,0.0192414
913.4,0.0188486
913.2,0.0184558
913.0,0.018063
912.8,0.0182046
912.6,0.0183462
912.4,0.0184878
912.2,0.0186294
912.0,0.018771
911.8,0.0198842
911.6,0.0209974
911.4,0.0221106
911.2,0.0232238
911.0,0.024337
910.8,0.0252638
910.6,0.0261906
910.4,0.0271174
910.2,0.0280442
910.0,0.028971
909.8,0.0296064
909.6,0.0302418
909.4,0.0308772
909.2,0.0315126
909.0,0.032148
908.8,0.0322962
908.6,0.0324444
908.4,0.0325926
908.2,0.0327408
908.0,0.032889
907.8,0.0336228
907.6,0.0343566
907.4,0.0350904
907.2,0.0358242
907.0,0.036558
906.8,0.0389288
906.6,0.0412996
906.4,0.0436704
906.2,0.0460412
906.0,0.048412
905.8,0.049059
905.6,0.049706
905.4,0.050353
905.2,0.051
905.0,0.051647
904.8,0.0534268
904.6,0.0552066
904.4,0.0569864
904.2,0.0587662
904.0,0.060546
903.8,0.0631154
903.6,0.0656848
903.4,0.0682542
903.2,0.0708236
903.0,0.073393
902.8,0.0748176
902.6,0.0762422
902.4,0.0776668
902.2,0.0790914
902.0,0.080516
901.8,0.0833596
901.6,0.0862032
901.4,0.0890468
901.2,0.0918904
901.0,0.094734
900.8,0.098844
900.6,0.102954
900.4,0.107064
900.2,0.111174
900.0,0.115284
899.8,0.1182332
899.6,0.1211824
899.4,0.1241316
899.2,0.1270808
899.0,0.13003
898.8,0.1343424
898.6,0.1386548
898.4,0.1429672
898.2,0.1472796
898.0,0.151592
897.8,0.1587968
897.6,0.1660016
897.4,0.1732064
897.2,0.1804112
897.0,0.187616
896.8,0.1946482
896.6,0.2016804
896.4,0.2087126
896.2,0.2157448
896.0,0.222777
895.8,0.2324556
895.6,0.2421342
895.4,0.2518128
895.2,0.2614914
895.0,0.27117
894.8,0.2802894
894.6,0.2894088
894.4,0.2985282
894.2,0.3076476
894.0,0.316767
893.8,0.3313588
893.6,0.3459506
893.4,0.3605424
893.2,0.3751342
893.0,0.389726
892.8,0.4042436
892.6,0.4187612
892.4,0.4332788
892.2,0.4477964
892.0,0.462314
891.8,0.4848258
891.6,0.5073376
891.4,0.5298494
891.2,0.5523612
891.0,0.574873
890.8,0.599698
890.6,0.624523
890.4,0.649348
890.2,0.674173
890.0,0.698998
889.8,0.7311706
889.6,0.7633432
889.4,0.7955158
889.2,0.8276884
889.0,0.859861
888.8,0.9046228
888.6,0.9493846
888.4,0.9941464
888.2,1.0389082
888.0,1.08367
887.8,1.13879
887.6,1.19391
887.4,1.24903
887.2,1.30415
887.0,1.35927
886.8,1.433006
886.6,1.506742
886.4,1.580478
886.2,1.654214
886.0,1.72795
885.8,1.821274
885.6,1.914598
885.4,2.007922
885.2,2.101246
885.0,2.19457
884.8,2.320654
884.6,2.446738
884.4,2.572822
884.2,2.698906
884.0,2.82499
883.8,2.991072
883.6,3.157154
883.4,3.323236
883.2,3.489318
883.0,3.6554
882.8,3.879662
882.6,4.103924
882.4,4.328186
882.2,4.552448
882.0,4.77671
881.8,5.07759
881.6,5.37847
881.4,5.67935
881.2,5.98023
881.0,6.28111
880.8,6.68996
880.6,7.09881
880.4,7.50766
880.2,7.91651
880.0,8.32536
879.8,8.875788
879.6,9.426216
879.4,9.976644
879.2,10.527072
879.0,11.0775
878.8,11.80366
878.6,12.52982
878.4,13.25598
878.2,13.98214
878.0,14.7083
877.8,15.68216
877.6,16.65602
877.4,17.62988
877.2,18.60374
877.0,19.5776
876.8,20.82228
876.6,22.06696
876.4,23.31164
876.2,24.55632
876.0,25.801
875.8,27.3415
875.6,28.882
875.4,30.4225
875.2,31.963
875.0,33.5035
874.8,35.32296
874.6,37.14242
874.4,38.96188
874.2,40.78134
874.0,42.6008
873.8,44.59684
873.6,46.59288
873.4,48.58892
873.2,50.58496
873.0,52.581
872.8,54.6809
872.6,56.7808
872.4,58.8807
872.2,60.9806
872.0,63.0805
871.8,65.04888
871.6,67.01726
871.4,68.98564
871.2,70.95402
871.0,72.9224
870.8,74.63718
870.6,76.35196
870.4,78.06674
870.2,79.78152
870.0,81.4963
869.8,82.85622
869.6,84.21614
869.4,85.57606
869.2,86.93598
869.0,88.2959
868.8,89.22356
868.6,90.15122
868.4,91.07888
868.2,92.00654
868.0,92.9342
867.8,93.57198
867.6,94.20976
867.4,94.84754
867.2,95.48532
867.0,96.1231
866.8,96.50922
866.6,96.89534
866.4,97.28146
866.2,97.66758
866.0,98.0537
865.8,98.26232
865.6,98.47094
865.4,98.67956
865.2,98.88818
865.0,99.0968
864.8,99.17662
864.6,99.25644
864.4,99.33626
864.2,99.41608
864.0,99.4959
863.8,99.50638
863.6,99.51686
863.4,99.52734
863.2,99.53782
863.0,99.5483
862.8,99.57608
862.6,99.60386
862.4,99.63164
862.2,99.65942
862.0,99.6872
861.8,99.67552
861.6,99.66384
861.4,99.65216
861.2,99.64048
861.0,99.6288
860.8,99.61338
860.6,99.59796
860.4,99.58254
860.2,99.56712
860.0,99.5517
859.8,99.5579
859.6,99.5641
859.4,99.5703
859.2,99.5765
859.0,99.5827
858.8,99.6104
858.6,99.6381
858.4,99.6658
858.2,99.6935
858.0,99.7212
857.8,99.70396
857.6,99.68672
857.4,99.66948
857.2,99.65224
857.0,99.635
856.8,99.66174
856.6,99.68848
856.4,99.71522
856.2,99.74196
856.0,99.7687
855.8,99.75218
855.6,99.73566
855.4,99.71914
855.2,99.70262
855.0,99.6861
854.8,99.6618
854.6,99.6375
854.4,99.6132
854.2,99.5889
854.0,99.5646
853.8,99.5641
853.6,99.5636
853.4,99.5631
853.2,99.5626
853.0,99.5621
852.8,99.62018
852.6,99.67826
852.4,99.73634
852.2,99.79442
852.0,99.8525
851.8,99.84378
851.6,99.83506
851.4,99.82634
851.2,99.81762
851.0,99.8089
850.8,99.73238
850.6,99.65586
850.4,99.57934
850.2,99.50282
850.0,99.4263
849.8,99.41156
849.6,99.39682
849.4,99.38208
849.2,99.36734
849.0,99.3526
848.8,99.44516
848.6,99.53772
848.4,99.63028
848.2,99.72284
848.0,99.8154
847.8,99.74406
847.6,99.67272
847.4,99.60138
847.2,99.53004
847.0,99.4587
846.8,99.52194
846.6,99.58518
846.4,99.64842
846.2,99.71166
846.0,99.7749
845.8,99.74868
845.6,99.72246
845.4,99.69624
845.2,99.67002
845.0,99.6438
844.8,99.63266
844.6,99.62152
844.4,99.61038
844.2,99.59924
844.0,99.5881
843.8,99.53064
843.6,99.47318
843.4,99.41572
843.2,99.35826
843.0,99.3008
842.8,99.34404
842.6,99.38728
842.4,99.43052
842.2,99.47376
842.0,99.517
841.8,99.51276
841.6,99.50852
841.4,99.50428
841.2,99.50004
841.0,99.4958
840.8,99.5124
840.6,99.529
840.4,99.5456
840.2,99.5622
840.0,99.5788
839.8,99.53208
839.6,99.48536
839.4,99.43864
839.2,99.39192
839.0,99.3452
838.8,99.4188
838.6,99.4924
838.4,99.566
838.2,99.6396
838.0,99.7132
837.8,99.71406
837.6,99.71492
837.4,99.71578
837.2,99.71664
837.0,99.7175
836.8,99.71728
836.6,99.71706
836.4,99.71684
836.2,99.71662
836.0,99.7164
835.8,99.72116
835.6,99.72592
835.4,99.73068
835.2,99.73544
835.0,99.7402
834.8,99.701
834.6,99.6618
834.4,99.6226
834.2,99.5834
834.0,99.5442
833.8,99.6214
833.6,99.6986
833.4,99.7758
833.2,99.853
833.0,99.9302
832.8,99.87684
832.6,99.82348
832.4,99.77012
832.2,99.71676
832.0,99.6634
831.8,99.69242
831.6,99.72144
831.4,99.75046
831.2,99.77948
831.0,99.8085
830.8,99.824
830.6,99.8395
830.4,99.855
830.2,99.8705
830.0,99.886
829.8,99.86066
829.6,99.83532
829.4,99.80998
829.2,99.78464
829.0,99.7593
828.8,99.79508
828.6,99.83086
828.4,99.86664
828.2,99.90242
828.0,99.9382
827.8,99.88206
827.6,99.82592
827.4,99.76978
827.2,99.71364
827.0,99.6575
826.8,99.68868
826.6,99.71986
826.4,99.75104
826.2,99.78222
826.0,99.8134
825.8,99.83502
825.6,99.85664
825.4,99.87826
825.2,99.89988
825.0,99.9215
824.8,99.85412
824.6,99.78674
824.4,99.71936
824.2,99.65198
824.0,99.5846
823.8,99.6589
823.6,99.7332
823.4,99.8075
823.2,99.8818
823.0,99.9561
822.8,99.9021
822.6,99.8481
822.4,99.7941
822.2,99.7401
822.0,99.6861
821.8,99.65412
821.6,99.62214
821.4,99.59016
821.2,99.55818
821.0,99.5262
820.8,99.56484
820.6,99.60348
820.4,99.64212
820.2,99.68076
820.0,99.7194
819.8,99.75302
819.6,99.78664
819.4,99.82026
819.2,99.85388
819.0,99.8875
818.8,99.86358
818.6,99.83966
818.4,99.81574
818.2,99.79182
818.0,99.7679
817.8,99.75468
817.6,99.74146
817.4,99.72824
817.2,99.71502
817.0,99.7018
816.8,99.70766
816.6,99.71352
816.4,99.71938
816.2,99.72524
816.0,99.7311
815.8,99.72942
815.6,99.72774
815.4,99.72606
815.2,99.72438
815.0,99.7227
814.8,99.74452
814.6,99.76634
814.4,99.78816
814.2,99.80998
814.0,99.8318
813.8,99.8358
813.6,99.8398
813.4,99.8438
813.2,99.8478
813.0,99.8518
812.8,99.8558
812.6,99.8598
812.4,99.8638
812.2,99.8678
812.0,99.8718
811.8,99.86824
811.6,99.86468
811.4,99.86112
811.2,99.85756
811.0,99.854
810.8,99.84952
810.6,99.84504
810.4,99.84056
810.2,99.83608
810.0,99.8316
809.8,99.79218
809.6,99.75276
809.4,99.71334
809.2,99.67392
809.0,99.6345
808.8,99.6992
808.6,99.7639
808.4,99.8286
808.2,99.8933
808.0,99.958
807.8,99.95016
807.6,99.94232
807.4,99.93448
807.2,99.92664
807.0,99.9188
806.8,99.88124
806.6,99.84368
806.4,99.80612
806.2,99.76856
806.0,99.731
805.8,99.76976
805.6,99.80852
805.4,99.84728
805.2,99.88604
805.0,99.9248
804.8,99.89288
804.6,99.86096
804.4,99.82904
804.2,99.79712
804.0,99.7652
803.8,99.76522
803.6,99.76524
803.4,99.76526
803.2,99.76528
803.0,99.7653
802.8,99.76532
802.6,99.76534
802.4,99.76536
802.2,99.76538
802.0,99.7654
801.8,99.80404
801.6,99.84268
801.4,99.88132
801.2,99.91996
801.0,99.9586
800.8,99.94034
800.6,99.92208
800.4,99.90382
800.2,99.88556
800.0,99.8673
799.8,99.83082
799.6,99.79434
799.4,99.75786
799.2,99.72138
799.0,99.6849
798.8,99.6681
798.6,99.6513
798.4,99.6345
798.2,99.6177
798.0,99.6009
797.8,99.6357
797.6,99.6705
797.4,99.7053
797.2,99.7401
797.0,99.7749
796.8,99.8097
796.6,99.8445
796.4,99.8793
796.2,99.9141
796.0,99.9489
795.8,99.93624
795.6,99.92358
795.4,99.91092
795.2,99.89826
795.0,99.8856
794.8,99.90614
794.6,99.92668
794.4,99.94722
794.2,99.96776
794.0,99.9883
793.8,99.959
793.6,99.9297
793.4,99.9004
793.2,99.8711
793.0,99.8418
792.8,99.78536
792.6,99.72892
792.4,99.67248
792.2,99.61604
792.0,99.5596
791.8,99.60512
791.6,99.65064
791.4,99.69616
791.2,99.74168
791.0,99.7872
790.8,99.79454
790.6,99.80188
790.4,99.80922
790.2,99.81656
790.0,99.8239
789.8,99.803
789.6,99.7821
789.4,99.7612
789.2,99.7403
789.0,99.7194
788.8,99.76738
788.6,99.81536
788.4,99.86334
788.2,99.91132
788.0,99.9593
787.8,99.90696
787.6,99.85462
787.4,99.80228
787.2,99.74994
787.0,99.6976
786.8,99.693
786.6,99.6884
786.4,99.6838
786.2,99.6792
786.0,99.6746
785.8,99.70318
785.6,99.73176
785.4,99.76034
785.2,99.78892
785.0,99.8175
784.8,99.78786
784.6,99.75822
784.4,99.72858
784.2,99.69894
784.0,99.6693
783.8,99.72168
783.6,99.77406
783.4,99.82644
783.2,99.87882
783.0,99.9312
782.8,99.8704
782.6,99.8096
782.4,99.7488
782.2,99.688
782.0,99.6272
781.8,99.69204
781.6,99.75688
781.4,99.82172
781.2,99.88656
781.0,99.9514
780.8,99.89312
780.6,99.83484
780.4,99.77656
780.2,99.71828
780.0,99.66
779.8,99.68458
779.6,99.70916
779.4,99.73374
779.2,99.75832
779.0,99.7829
778.8,99.77696
778.6,99.77102
778.4,99.76508
778.2,99.75914
778.0,99.7532
777.8,99.79084
777.6,99.82848
777.4,99.86612
777.2,99.90376
777.0,99.9414
776.8,99.9016
776.6,99.8618
776.4,99.822
776.2,99.7822
776.0,99.7424
775.8,99.69738
775.6,99.65236
775.4,99.60734
775.2,99.56232
775.0,99.5173
774.8,99.5496
774.6,99.5819
774.4,99.6142
774.2,99.6465
774.0,99.6788
773.8,99.64704
773.6,99.61528
773.4,99.58352
773.2,99.55176
773.0,99.52
772.8,99.5661
772.6,99.6122
772.4,99.6583
772.2,99.7044
772.0,99.7505
771.8,99.74724
771.6,99.74398
771.4,99.74072
771.2,99.73746
771.0,99.7342
770.8,99.71982
770.6,99.70544
770.4,99.69106
770.2,99.67668
770.0,99.6623
769.8,99.705
769.6,99.7477
769.4,99.7904
769.2,99.8331
769.0,99.8758
768.8,99.84598
768.6,99.81616
768.4,99.78634
768.2,99.75652
768.0,99.7267
767.8,99.7127
767.6,99.6987
767.4,99.6847
767.2,99.6707
767.0,99.6567
766.8,99.6395
766.6,99.6223
766.4,99.6051
766.2,99.5879
766.0,99.5707
765.8,99.62788
765.6,99.68506
765.4,99.74224
765.2,99.79942
765.0,99.8566
764.8,99.85094
764.6,99.84528
764.4,99.83962
764.2,99.83396
764.0,99.8283
763.8,99.79174
763.6,99.75518
763.4,99.71862
763.2,99.68206
763.0,99.6455
762.8,99.65148
762.6,99.65746
762.4,99.66344
762.2,99.66942
762.0,99.6754
761.8,99.68468
761.6,99.69396
761.4,99.70324
761.2,99.71252
761.0,99.7218
760.8,99.71048
760.6,99.69916
760.4,99.68784
760.2,99.67652
760.0,99.6652
759.8,99.67878
759.6,99.69236
759.4,99.70594
759.2,99.71952
759.0,99.7331
758.8,99.7158
758.6,99.6985
758.4,99.6812
758.2,99.6639
758.0,99.6466
757.8,99.64248
757.6,99.63836
757.4,99.63424
757.2,99.63012
757.0,99.626
756.8,99.6356
756.6,99.6452
756.4,99.6548
756.2,99.6644
756.0,99.674
755.8,99.6914
755.6,99.7088
755.4,99.7262
755.2,99.7436
755.0,99.761
754.8,99.7175
754.6,99.674
754.4,99.6305
754.2,99.587
754.0,99.5435
753.8,99.56686
753.6,99.59022
753.4,99.61358
753.2,99.63694
753.0,99.6603
752.8,99.6708
752.6,99.6813
752.4,99.6918
752.2,99.7023
752.0,99.7128
751.8,99.68614
751.6,99.65948
751.4,99.63282
751.2,99.60616
751.0,99.5795
750.8,99.64322
750.6,99.70694
750.4,99.77066
750.2,99.83438
750.0,99.8981
749.8,99.86786
749.6,99.83762
749.4,99.80738
749.2,99.77714
749.0,99.7469
748.8,99.71
748.6,99.6731
748.4,99.6362
748.2,99.5993
748.0,99.5624
747.8,99.5957
747.6,99.629
747.4,99.6623
747.2,99.6956
747.0,99.7289
746.8,99.72204
746.6,99.71518
746.4,99.70832
746.2,99.70146
746.0,99.6946
745.8,99.69364
745.6,99.69268
745.4,99.69172
745.2,99.69076
745.0,99.6898
744.8,99.67656
744.6,99.66332
744.4,99.65008
744.2,99.63684
744.0,99.6236
743.8,99.6031
743.6,99.5826
743.4,99.5621
743.2,99.5416
743.0,99.5211
742.8,99.52024
742.6,99.51938
742.4,99.51852
742.2,99.51766
742.0,99.5168
741.8,99.5622
741.6,99.6076
741.4,99.653
741.2,99.6984
741.0,99.7438
740.8,99.71622
740.6,99.68864
740.4,99.66106
740.2,99.63348
740.0,99.6059
739.8,99.60346
739.6,99.60102
739.4,99.59858
739.2,99.59614
739.0,99.5937
738.8,99.62274
738.6,99.65178
738.4,99.68082
738.2,99.70986
738.0,99.7389
737.8,99.69092
737.6,99.64294
737.4,99.59496
737.2,99.54698
737.0,99.499
736.8,99.46796
736.6,99.43692
736.4,99.40588
736.2,99.37484
736.0,99.3438
735.8,99.31798
735.6,99.29216
735.4,99.26634
735.2,99.24052
735.0,99.2147
734.8,99.2253
734.6,99.2359
734.4,99.2465
734.2,99.2571
734.0,99.2677
733.8,99.24764
733.6,99.22758
733.4,99.20752
733.2,99.18746
733.0,99.1674
732.8,99.20494
732.6,99.24248
732.4,99.28002
732.2,99.31756
732.0,99.3551
731.8,99.36964
731.6,99.38418
731.4,99.39872
731.2,99.41326
731.0,99.4278
730.8,99.3743
730.6,99.3208
730.4,99.2673
730.2,99.2138
730.0,99.1603
729.8,99.05236
729.6,98.94442
729.4,98.83648
729.2,98.72854
729.0,98.6206
728.8,98.30428
728.6,97.98796
728.4,97.67164
728.2,97.35532
728.0,97.039
727.8,96.49468
727.6,95.95036
727.4,95.40604
727.2,94.86172
727.0,94.3174
726.8,93.53366
726.6,92.74992
726.4,91.96618
726.2,91.18244
726.0,90.3987
725.8,89.174
725.6,87.9493
725.4,86.7246
725.2,85.4999
725.0,84.2752
724.8,82.75806
724.6,81.24092
724.4,79.72378
724.2,78.20664
724.0,76.6895
723.8,74.92852
723.6,73.16754
723.4,71.40656
723.2,69.64558
723.0,67.8846
722.8,66.01828
722.6,64.15196
722.4,62.28564
722.2,60.41932
722.0,58.553
721.8,56.75956
721.6,54.96612
721.4,53.17268
721.2,51.37924
721.0,49.5858
720.8,47.99086
720.6,46.39592
720.4,44.80098
720.2,43.20604
720.0,41.6111
719.8,40.19962
719.6,38.78814
719.4,37.37666
719.2,35.96518
719.0,34.5537
718.8,33.36554
718.6,32.17738
718.4,30.98922
718.2,29.80106
718.0,28.6129
717.8,27.66358
717.6,26.71426
717.4,25.76494
717.2,24.81562
717.0,23.8663
716.8,23.059
716.6,22.2517
716.4,21.4444
716.2,20.6371
716.0,19.8298
715.8,19.16344
715.6,18.49708
715.4,17.83072
715.2,17.16436
715.0,16.498
714.8,15.93532
714.6,15.37264
714.4,14.80996
714.2,14.24728
714.0,13.6846
713.8,13.20176
713.6,12.71892
713.4,12.23608
713.2,11.75324
713.0,11.2704
712.8,10.843748
712.6,10.417096
712.4,9.990444
712.2,9.563792
712.0,9.13714
711.8,8.781386
711.6,8.425632
711.4,8.069878
711.2,7.714124
711.0,7.35837
710.8,7.06058
710.6,6.76279
710.4,6.465
710.2,6.16721
710.0,5.86942
709.8,5.61402
709.6,5.35862
709.4,5.10322
709.2,4.84782
709.0,4.59242
708.8,4.391098
708.6,4.189776
708.4,3.988454
708.2,3.787132
708.0,3.58581
707.8,3.422116
707.6,3.258422
707.4,3.094728
707.2,2.931034
707.0,2.76734
706.8,2.643784
706.6,2.520228
706.4,2.396672
706.2,2.273116
706.0,2.14956
705.8,2.05445
705.6,1.95934
705.4,1.86423
705.2,1.76912
705.0,1.67401
704.8,1.602968
704.6,1.531926
704.4,1.460884
704.2,1.389842
704.0,1.3188
703.8,1.266892
703.6,1.214984
703.4,1.163076
703.2,1.111168
703.0,1.05926
702.8,1.0182536
702.6,0.9772472
702.4,0.9362408
702.2,0.8952344
702.0,0.854228
701.8,0.8238574
701.6,0.7934868
701.4,0.7631162
701.2,0.7327456
701.0,0.702375
700.8,0.6793698
700.6,0.6563646
700.4,0.6333594
700.2,0.6103542
700.0,0.587349
699.8,0.568148
699.6,0.548947
699.4,0.529746
699.2,0.510545
699.0,0.491344
698.8,0.4792842
698.6,0.4672244
698.4,0.4551646
698.2,0.4431048
698.0,0.431045
697.8,0.4192768
697.6,0.4075086
697.4,0.3957404
697.2,0.3839722
697.0,0.372204
696.8,0.3653788
696.6,0.3585536
696.4,0.3517284
696.2,0.3449032
696.0,0.338078
695.8,0.3300608
695.6,0.3220436
695.4,0.3140264
695.2,0.3060092
695.0,0.297992
694.8,0.2917026
694.6,0.2854132
694.4,0.2791238
694.2,0.2728344
694.0,0.266545
693.8,0.2615342
693.6,0.2565234
693.4,0.2515126
693.2,0.2465018
693.0,0.241491
692.8,0.237013
692.6,0.232535
692.4,0.228057
692.2,0.223579
692.0,0.219101
691.8,0.2141092
691.6,0.2091174
691.4,0.2041256
691.2,0.1991338
691.0,0.194142
690.8,0.1877448
690.6,0.1813476
690.4,0.1749504
690.2,0.1685532
690.0,0.162156
689.8,0.1573304
689.6,0.1525048
689.4,0.1476792
689.2,0.1428536
689.0,0.138028
688.8,0.1339244
688.6,0.1298208
688.4,0.1257172
688.2,0.1216136
688.0,0.11751
687.8,0.1136002
687.6,0.1096904
687.4,0.1057806
687.2,0.1018708
687.0,0.097961
686.8,0.094321
686.6,0.090681
686.4,0.087041
686.2,0.083401
686.0,0.079761
685.8,0.0776648
685.6,0.0755686
685.4,0.0734724
685.2,0.0713762
685.0,0.06928
684.8,0.0658766
684.6,0.0624732
684.4,0.0590698
684.2,0.0556664
684.0,0.052263
683.8,0.0499552
683.6,0.0476474
683.4,0.0453396
683.2,0.0430318
683.0,0.040724
682.8,0.0404718
682.6,0.0402196
682.4,0.0399674
682.2,0.0397152
682.0,0.039463
681.8,0.0385464
681.6,0.0376298
681.4,0.0367132
681.2,0.0357966
681.0,0.03488
680.8,0.0331198
680.6,0.0313596
680.4,0.0295994
680.2,0.0278392
680.0,0.026079
679.8,0.0256196
679.6,0.0251602
679.4,0.0247008
679.2,0.0242414
679.0,0.023782
678.8,0.0239962
678.6,0.0242104
678.4,0.0244246
678.2,0.0246388
678.0,0.024853
677.8,0.0242852
677.6,0.0237174
677.4,0.0231496
677.2,0.0225818
677.0,0.022014
676.8,0.02067
676.6,0.019326
676.4,0.017982
676.2,0.016638
676.0,0.015294
675.8,0.0163404
675.6,0.0173868
675.4,0.0184332
675.2,0.0194796
675.0,0.020526
674.8,0.020815
674.6,0.021104
674.4,0.021393
674.2,0.021682
674.0,0.021971
673.8,0.0212126
673.6,0.0204542
673.4,0.0196958
673.2,0.0189374
673.0,0.018179
672.8,0.0172198
672.6,0.0162606
672.4,0.0153014
672.2,0.0143422
672.0,0.013383
671.8,0.0131812
671.6,0.0129794
671.4,0.0127776
671.2,0.0125758
671.0,0.012374
670.8,0.0132006
670.6,0.0140272
670.4,0.0148538
670.2,0.0156804
670.0,0.016507
669.8,0.017051
669.6,0.017595
669.4,0.018139
669.2,0.018683
669.0,0.019227
668.8,0.017517
668.6,0.015807
668.4,0.014097
668.2,0.012387
668.0,0.010677
667.8,0.0095002
667.6,0.0083234
667.4,0.0071466
667.2,0.0059698
667.0,0.004793
666.8,0.0055888
666.6,0.0063846
666.4,0.0071804
666.2,0.0079762
666.0,0.008772
665.8,0.0099046
665.6,0.0110372
665.4,0.0121698
665.2,0.0133024
665.0,0.014435
664.8,0.0135686
664.6,0.0127022
664.4,0.0118358
664.2,0.0109694
664.0,0.010103
663.8,0.0093122
663.6,0.0085214
663.4,0.0077306
663.2,0.0069398
663.0,0.006149
662.8,0.005217
662.6,0.004285
662.4,0.003353
662.2,0.002421
662.0,0.001489
661.8,0.0018706
661.6,0.0022522
661.4,0.0026338
661.2,0.0030154
661.0,0.003397
660.8,0.0038342
660.6,0.0042714
660.4,0.0047086
660.2,0.0051458
660.0,0.005583
659.8,0.0048252
659.6,0.0040674
659.4,0.0033096
659.2,0.0025518
659.0,0.001794
658.8,0.001731
658.6,0.001668
658.4,0.001605
658.2,0.001542
658.0,0.001479
657.8,0.0021718
657.6,0.0028646
657.4,0.0035574
657.2,0.0042502
657.0,0.004943
656.8,0.005576
656.6,0.006209
656.4,0.006842
656.2,0.007475
656.0,0.008108
655.8,0.0067394
655.6,0.0053708
655.4,0.0040022
655.2,0.0026336
655.0,0.001265
654.8,0.0011954
654.6,0.0011258
654.4,0.0010562
654.2,0.0009866
654.0,0.000917
653.8,0.0009096
653.6,0.0009022
653.4,0.0008948
653.2,0.0008874
653.0,0.00088
652.8,0.0017488
652.6,0.0026176
652.4,0.0034864
652.2,0.0043552
652.0,0.005224
651.8,0.004465
651.6,0.003706
651.4,0.002947
651.2,0.002188
651.0,0.001429
650.8,0.00172
650.6,0.002011
650.4,0.002302
650.2,0.002593
650.0,0.002884
649.8,0.0025608
649.6,0.0022376
649.4,0.0019144
649.2,0.0015912
649.0,0.001268
648.8,0.0010928
648.6,0.0009176
648.4,0.0007424
648.2,0.0005672
648.0,0.000392
647.8,0.0006858
647.6,0.0009796
647.4,0.0012734
647.2,0.0015672
647.0,0.001861
646.8,0.0018376
646.6,0.0018142
646.4,0.0017908
646.2,0.0017674
646.0,0.001744
645.8,0.0018208
645.6,0.0018976
645.4,0.0019744
645.2,0.0020512
645.0,0.002128
644.8,0.0028052
644.6,0.0034824
644.4,0.0041596
644.2,0.0048368
644.0,0.005514
643.8,0.0049834
643.6,0.0044528
643.4,0.0039222
643.2,0.0033916
643.0,0.002861
642.8,0.0027182
642.6,0.0025754
642.4,0.0024326
642.2,0.0022898
642.0,0.002147
641.8,0.0017958
641.6,0.0014446
641.4,0.0010934
641.2,0.0007422
641.0,0.000391
640.8,0.0009464
640.6,0.0015018
640.4,0.0020572
640.2,0.0026126
640.0,0.003168
639.8,0.0029944
639.6,0.0028208
639.4,0.0026472
639.2,0.0024736
639.0,0.0023
638.8,0.0018542
638.6,0.0014084
638.4,0.0009626
638.2,0.0005168
638.0,7.1E-05
637.8,0.0001838
637.6,0.0002966
637.4,0.0004094
637.2,0.0005222
637.0,0.000635
636.8,0.0008422
636.6,0.0010494
636.4,0.0012566
636.2,0.0014638
636.0,0.001671
635.8,0.0015768
635.6,0.0014826
635.4,0.0013884
635.2,0.0012942
635.0,0.0012
634.8,0.001015
634.6,0.00083
634.4,0.000645
634.2,0.00046
634.0,0.000275
633.8,0.0003878
633.6,0.0005006
633.4,0.0006134
633.2,0.0007262
633.0,0.000839
632.8,0.0019076
632.6,0.0029762
632.4,0.0040448
632.2,0.0051134
632.0,0.006182
631.8,0.0057478
631.6,0.0053136
631.4,0.0048794
631.2,0.0044452
631.0,0.004011
630.8,0.0037212
630.6,0.0034314
630.4,0.0031416
630.2,0.0028518
630.0,0.002562
629.8,0.0022644
629.6,0.0019668
629.4,0.0016692
629.2,0.0013716
629.0,0.001074
628.8,0.0014164
628.6,0.0017588
628.4,0.0021012
628.2,0.0024436
628.0,0.002786
627.8,0.0030054
627.6,0.0032248
627.4,0.0034442
627.2,0.0036636
627.0,0.003883
626.8,0.0033932
626.6,0.0029034
626.4,0.0024136
626.2,0.0019238
626.0,0.001434
625.8,0.0012152
625.6,0.0009964
625.4,0.0007776
625.2,0.0005588
625.0,0.00034
624.8,0.0009254
624.6,0.0015108
624.4,0.0020962
624.2,0.0026816
624.0,0.003267
623.8,0.0033798
623.6,0.0034926
623.4,0.0036054
623.2,0.0037182
623.0,0.003831
622.8,0.00331
622.6,0.002789
622.4,0.002268
622.2,0.001747
622.0,0.001226
621.8,0.0011744
621.6,0.0011228
621.4,0.0010712
621.2,0.0010196
621.0,0.000968
620.8,0.0010364
620.6,0.0011048
620.4,0.0011732
620.2,0.0012416
620.0,0.00131
619.8,0.0012938
619.6,0.0012776
619.4,0.0012614
619.2,0.0012452
619.0,0.001229
618.8,0.001101
618.6,0.000973
618.4,0.000845
618.2,0.000717
618.0,0.000589
617.8,0.0007416
617.6,0.0008942
617.4,0.0010468
617.2,0.0011994
617.0,0.001352
616.8,0.0012256
616.6,0.0010992
616.4,0.0009728
616.2,0.0008464
616.0,0.00072
615.8,0.0011334
615.6,0.0015468
615.4,0.0019602
615.2,0.0023736
615.0,0.002787
614.8,0.0027396
614.6,0.0026922
614.4,0.0026448
614.2,0.0025974
614.0,0.00255
613.8,0.0021302
613.6,0.0017104
613.4,0.0012906
613.2,0.0008708
613.0,0.000451
612.8,0.000474
612.6,0.000497
612.4,0.00052
612.2,0.000543
612.0,0.000566
611.8,0.001148
611.6,0.00173
611.4,0.002312
611.2,0.002894
611.0,0.003476
610.8,0.0031208
610.6,0.0027656
610.4,0.0024104
610.2,0.0020552
610.0,0.0017
609.8,0.0015636
609.6,0.0014272
609.4,0.0012908
609.2,0.0011544
609.0,0.001018
608.8,0.0010128
608.6,0.0010076
608.4,0.0010024
608.2,0.0009972
608.0,0.000992
607.8,0.0013506
607.6,0.0017092
607.4,0.0020678
607.2,0.0024264
607.0,0.002785
606.8,0.0029694
606.6,0.0031538
606.4,0.0033382
606.2,0.0035226
606.0,0.003707
605.8,0.0031872
605.6,0.0026674
605.4,0.0021476
605.2,0.0016278
605.0,0.001108
604.8,0.0014102
604.6,0.0017124
604.4,0.0020146
604.2,0.0023168
604.0,0.002619
603.8,0.0033306
603.6,0.0040422
603.4,0.0047538
603.2,0.0054654
603.0,0.006177
602.8,0.0056656
602.6,0.0051542
602.4,0.0046428
602.2,0.0041314
602.0,0.00362
601.8,0.0033038
601.6,0.0029876
601.4,0.0026714
601.2,0.0023552
601.0,0.002039
600.8,0.0022724
600.6,0.0025058
600.4,0.0027392
600.2,0.0029726
600.0,0.003206
599.8,0.0028274
599.6,0.0024488
599.4,0.0020702
599.2,0.0016916
599.0,0.001313
598.8,0.0012788
598.6,0.0012446
598.4,0.0012104
598.2,0.0011762
598.0,0.001142
597.8,0.0015114
597.6,0.0018808
597.4,0.0022502
597.2,0.0026196
597.0,0.002989
596.8,0.0026618
596.6,0.0023346
596.4,0.0020074
596.2,0.0016802
596.0,0.001353
595.8,0.0013554
595.6,0.0013578
595.4,0.0013602
595.2,0.0013626
595.0,0.001365
594.8,0.0012636
594.6,0.0011622
594.4,0.0010608
594.2,0.0009594
594.0,0.000858
593.8,0.001057
593.6,0.001256
593.4,0.001455
593.2,0.001654
593.0,0.001853
592.8,0.0016212
592.6,0.0013894
592.4,0.0011576
592.2,0.0009258
592.0,0.000694
591.8,0.001012
591.6,0.00133
591.4,0.001648
591.2,0.001966
591.0,0.002284
590.8,0.0018694
590.6,0.0014548
590.4,0.0010402
590.2,0.0006256
590.0,0.000211
589.8,0.0002848
589.6,0.0003586
589.4,0.0004324
589.2,0.0005062
589.0,0.00058
588.8,0.000762
588.6,0.000944
588.4,0.001126
588.2,0.001308
588.0,0.00149
587.8,0.0013876
587.6,0.0012852
587.4,0.0011828
587.2,0.0010804
587.0,0.000978
586.8,0.0013926
586.6,0.0018072
586.4,0.0022218
586.2,0.0026364
586.0,0.003051
585.8,0.0031642
585.6,0.0032774
585.4,0.0033906
585.2,0.0035038
585.0,0.003617
584.8,0.0030146
584.6,0.0024122
584.4,0.0018098
584.2,0.0012074
584.0,0.000605
583.8,0.0010088
583.6,0.0014126
583.4,0.0018164
583.2,0.0022202
583.0,0.002624
582.8,0.0026492
582.6,0.0026744
582.4,0.0026996
582.2,0.0027248
582.0,0.00275
581.8,0.002265
581.6,0.00178
581.4,0.001295
581.2,0.00081
581.0,0.000325
580.8,0.0003146
580.6,0.0003042
580.4,0.0002938
580.2,0.0002834
580.0,0.000273
579.8,0.0002184
579.6,0.0001638
579.4,0.0001092
579.2,5.46E-05
579.0,6.72205E-18
578.8,0.0001494
578.6,0.0002988
578.4,0.0004482
578.2,0.0005976
578.0,0.000747
577.8,0.0007058
577.6,0.0006646
577.4,0.0006234
577.2,0.0005822
577.0,0.000541
576.8,0.0004834
576.6,0.0004258
576.4,0.0003682
576.2,0.0003106
576.0,0.000253
575.8,0.0007412
575.6,0.0012294
575.4,0.0017176
575.2,0.0022058
575.0,0.002694
574.8,0.002603
574.6,0.002512
574.4,0.002421
574.2,0.00233
574.0,0.002239
573.8,0.0021272
573.6,0.0020154
573.4,0.0019036
573.2,0.0017918
573.0,0.00168
572.8,0.0016518
572.6,0.0016236
572.4,0.0015954
572.2,0.0015672
572.0,0.001539
571.8,0.0015792
571.6,0.0016194
571.4,0.0016596
571.2,0.0016998
571.0,0.00174
570.8,0.0015422
570.6,0.0013444
570.4,0.0011466
570.2,0.0009488
570.0,0.000751
569.8,0.0012502
569.6,0.0017494
569.4,0.0022486
569.2,0.0027478
569.0,0.003247
568.8,0.0027138
568.6,0.0021806
568.4,0.0016474
568.2,0.0011142
568.0,0.000581
567.8,0.0005344
567.6,0.0004878
567.4,0.0004412
567.2,0.0003946
567.0,0.000348
566.8,0.000649
566.6,0.00095
566.4,0.001251
566.2,0.001552
566.0,0.001853
565.8,0.002187
565.6,0.002521
565.4,0.002855
565.2,0.003189
565.0,0.003523
564.8,0.0030956
564.6,0.0026682
564.4,0.0022408
564.2,0.0018134
564.0,0.001386
563.8,0.0013196
563.6,0.0012532
563.4,0.0011868
563.2,0.0011204
563.0,0.001054
562.8,0.0011888
562.6,0.0013236
562.4,0.0014584
562.2,0.0015932
562.0,0.001728
561.8,0.0018398
561.6,0.0019516
561.4,0.0020634
561.2,0.0021752
561.0,0.002287
560.8,0.0019612
560.6,0.0016354
560.4,0.0013096
560.2,0.0009838
560.0,0.000658
559.8,0.000792
559.6,0.000926
559.4,0.00106
559.2,0.001194
559.0,0.001328
558.8,0.0017436
558.6,0.0021592
558.4,0.0025748
558.2,0.0029904
558.0,0.003406
557.8,0.0028064
557.6,0.0022068
557.4,0.0016072
557.2,0.0010076
557.0,0.000408
556.8,0.0005618
556.6,0.0007156
556.4,0.0008694
556.2,0.0010232
556.0,0.001177
555.8,0.0013862
555.6,0.0015954
555.4,0.0018046
555.2,0.0020138
555.0,0.002223
554.8,0.002262
554.6,0.002301
554.4,0.00234
554.2,0.002379
554.0,0.002418
553.8,0.0027716
553.6,0.0031252
553.4,0.0034788
553.2,0.0038324
553.0,0.004186
552.8,0.0034402
552.6,0.0026944
552.4,0.0019486
552.2,0.0012028
552.0,0.000457
551.8,0.0005256
551.6,0.0005942
551.4,0.0006628
551.2,0.0007314
551.0,0.0008
550.8,0.0011992
550.6,0.0015984
550.4,0.0019976
550.2,0.0023968
550.0,0.002796
549.8,0.002407
549.6,0.002018
549.4,0.001629
549.2,0.00124
549.0,0.000851
548.8,0.0009522
548.6,0.0010534
548.4,0.0011546
548.2,0.0012558
548.0,0.001357
547.8,0.0013306
547.6,0.0013042
547.4,0.0012778
547.2,0.0012514
547.0,0.001225
546.8,0.0014088
546.6,0.0015926
546.4,0.0017764
546.2,0.0019602
546.0,0.002144
545.8,0.0018954
545.6,0.0016468
545.4,0.0013982
545.2,0.0011496
545.0,0.000901
544.8,0.001038
544.6,0.001175
544.4,0.001312
544.2,0.001449
544.0,0.001586
543.8,0.0015836
543.6,0.0015812
543.4,0.0015788
543.2,0.0015764
543.0,0.001574
542.8,0.0012854
542.6,0.0009968
542.4,0.0007082
542.2,0.0004196
542.0,0.000131
541.8,0.000712
541.6,0.001293
541.4,0.001874
541.2,0.002455
541.0,0.003036
540.8,0.003073
540.6,0.00311
540.4,0.003147
540.2,0.003184
540.0,0.003221
539.8,0.003432
539.6,0.003643
539.4,0.003854
539.2,0.004065
539.0,0.004276
538.8,0.0038728
538.6,0.0034696
538.4,0.0030664
538.2,0.0026632
538.0,0.00226
537.8,0.0023096
537.6,0.0023592
537.4,0.0024088
537.2,0.0024584
537.0,0.002508
536.8,0.002112
536.6,0.001716
536.4,0.00132
536.2,0.000924
536.0,0.000528
535.8,0.0009088
535.6,0.0012896
535.4,0.0016704
535.2,0.0020512
535.0,0.002432
534.8,0.0024072
534.6,0.0023824
534.4,0.0023576
534.2,0.0023328
534.0,0.002308
533.8,0.0019564
533.6,0.0016048
533.4,0.0012532
533.2,0.0009016
533.0,0.00055
532.8,0.0006002
532.6,0.0006504
532.4,0.0007006
532.2,0.0007508
532.0,0.000801
531.8,0.0012528
531.6,0.0017046
531.4,0.0021564
531.2,0.0026082
531.0,0.00306
530.8,0.0027964
530.6,0.0025328
530.4,0.0022692
530.2,0.0020056
530.0,0.001742
529.8,0.001985
529.6,0.002228
529.4,0.002471
529.2,0.002714
529.0,0.002957
528.8,0.0024498
528.6,0.0019426
528.4,0.0014354
528.2,0.0009282
528.0,0.000421
527.8,0.0005802
527.6,0.0007394
527.4,0.0008986
527.2,0.0010578
527.0,0.001217
526.8,0.0013696
526.6,0.0015222
526.4,0.0016748
526.2,0.0018274
526.0,0.00198
525.8,0.0017232
525.6,0.0014664
525.4,0.0012096
525.2,0.0009528
525.0,0.000696
524.8,0.0011982
524.6,0.0017004
524.4,0.0022026
524.2,0.0027048
524.0,0.003207
523.8,0.0030482
523.6,0.0028894
523.4,0.0027306
523.2,0.0025718
523.0,0.002413
522.8,0.0019544
522.6,0.0014958
522.4,0.0010372
522.2,0.0005786
522.0,0.00012
521.8,0.0001236
521.6,0.0001272
521.4,0.0001308
521.2,0.0001344
521.0,0.000138
520.8,0.0004426
520.6,0.0007472
520.4,0.0010518
520.2,0.0013564
520.0,0.001661
519.8,0.0013704
519.6,0.0010798
519.4,0.0007892
519.2,0.0004986
519.0,0.000208
518.8,0.000404
518.6,0.0006
518.4,0.000796
518.2,0.000992
518.0,0.001188
517.8,0.0011708
517.6,0.0011536
517.4,0.0011364
517.2,0.0011192
517.0,0.001102
516.8,0.0010542
516.6,0.0010064
516.4,0.0009586
516.2,0.0009108
516.0,0.000863
515.8,0.0010876
515.6,0.0013122
515.4,0.0015368
515.2,0.0017614
515.0,0.001986
514.8,0.002102
514.6,0.002218
514.4,0.002334
514.2,0.00245
514.0,0.002566
513.8,0.0022782
513.6,0.0019904
513.4,0.0017026
513.2,0.0014148
513.0,0.001127
512.8,0.00115
512.6,0.001173
512.4,0.001196
512.2,0.001219
512.0,0.001242
511.8,0.0011672
511.6,0.0010924
511.4,0.0010176
511.2,0.0009428
511.0,0.000868
510.8,0.0009858
510.6,0.0011036
510.4,0.0012214
510.2,0.0013392
510.0,0.001457
509.8,0.0011656
509.6,0.0008742
509.4,0.0005828
509.2,0.0002914
509.0,-1.40946E-17
508.8,0.0001878
508.6,0.0003756
508.4,0.0005634
508.2,0.0007512
508.0,0.000939
507.8,0.001226
507.6,0.001513
507.4,0.0018
507.2,0.002087
507.0,0.002374
506.8,0.0025976
506.6,0.0028212
506.4,0.0030448
506.2,0.0032684
506.0,0.003492
505.8,0.0028236
505.6,0.0021552
505.4,0.0014868
505.2,0.0008184
505.0,0.00015
504.8,0.0004346
504.6,0.0007192
504.4,0.0010038
504.2,0.0012884
504.0,0.001573
503.8,0.0016554
503.6,0.0017378
503.4,0.0018202
503.2,0.0019026
503.0,0.001985
502.8,0.001757
502.6,0.001529
502.4,0.001301
502.2,0.001073
502.0,0.000845
501.8,0.0014706
501.6,0.0020962
501.4,0.0027218
501.2,0.0033474
501.0,0.003973
500.8,0.0033814
500.6,0.0027898
500.4,0.0021982
500.2,0.0016066
500.0,0.001015
499.8,0.0013924
499.6,0.0017698
499.4,0.0021472
499.2,0.0025246
499.0,0.002902
498.8,0.0030494
498.6,0.0031968
498.4,0.0033442
498.2,0.0034916
498.0,0.003639
497.8,0.0032204
497.6,0.0028018
497.4,0.0023832
497.2,0.0019646
497.0,0.001546
496.8,0.0018642
496.6,0.0021824
496.4,0.0025006
496.2,0.0028188
496.0,0.003137
495.8,0.0028164
495.6,0.0024958
495.4,0.0021752
495.2,0.0018546
495.0,0.001534
494.8,0.0014132
494.6,0.0012924
494.4,0.0011716
494.2,0.0010508
494.0,0.00093
493.8,0.0008608
493.6,0.0007916
493.4,0.0007224
493.2,0.0006532
493.0,0.000584
492.8,0.0009784
492.6,0.0013728
492.4,0.0017672
492.2,0.0021616
492.0,0.002556
491.8,0.0023906
491.6,0.0022252
491.4,0.0020598
491.2,0.0018944
491.0,0.001729
490.8,0.0015344
490.6,0.0013398
490.4,0.0011452
490.2,0.0009506
490.0,0.000756
489.8,0.0007272
489.6,0.0006984
489.4,0.0006696
489.2,0.0006408
489.0,0.000612
488.8,0.0009188
488.6,0.0012256
488.4,0.0015324
488.2,0.0018392
488.0,0.002146
487.8,0.0022592
487.6,0.0023724
487.4,0.0024856
487.2,0.0025988
487.0,0.002712
486.8,0.0025142
486.6,0.0023164
486.4,0.0021186
486.2,0.0019208
486.0,0.001723
485.8,0.0014014
485.6,0.0010798
485.4,0.0007582
485.2,0.0004366
485.0,0.000115
484.8,0.0001668
484.6,0.0002186
484.4,0.0002704
484.2,0.0003222
484.0,0.000374
483.8,0.0007162
483.6,0.0010584
483.4,0.0014006
483.2,0.0017428
483.0,0.002085
482.8,0.0020536
482.6,0.0020222
482.4,0.0019908
482.2,0.0019594
482.0,0.001928
481.8,0.0035582
481.6,0.0051884
481.4,0.0068186
481.2,0.0084488
481.0,0.010079
480.8,0.0112302
480.6,0.0123814
480.4,0.0135326
480.2,0.0146838
480.0,0.015835
479.8,0.0137402
479.6,0.0116454
479.4,0.0095506
479.2,0.0074558
479.0,0.005361
478.8,0.0051886
478.6,0.0050162
478.4,0.0048438
478.2,0.0046714
478.0,0.004499
477.8,0.0039084
477.6,0.0033178
477.4,0.0027272
477.2,0.0021366
477.0,0.001546
476.8,0.001557
476.6,0.001568
476.4,0.001579
476.2,0.00159
476.0,0.001601
475.8,0.002277
475.6,0.002953
475.4,0.003629
475.2,0.004305
475.0,0.004981
474.8,0.0044056
474.6,0.0038302
474.4,0.0032548
474.2,0.0026794
474.0,0.002104
473.8,0.002113
473.6,0.002122
473.4,0.002131
473.2,0.00214
473.0,0.002149
472.8,0.001995
472.6,0.001841
472.4,0.001687
472.2,0.001533
472.0,0.001379
471.8,0.0020902
471.6,0.0028014
471.4,0.0035126
471.2,0.0042238
471.0,0.004935
470.8,0.005819
470.6,0.006703
470.4,0.007587
470.2,0.008471
470.0,0.009355
469.8,0.0098742
469.6,0.0103934
469.4,0.0109126
469.2,0.0114318
469.0,0.011951
468.8,0.0151618
468.6,0.0183726
468.4,0.0215834
468.2,0.0247942
468.0,0.028005
467.8,0.0276022
467.6,0.0271994
467.4,0.0267966
467.2,0.0263938
467.0,0.025991
466.8,0.0240824
466.6,0.0221738
466.4,0.0202652
466.2,0.0183566
466.0,0.016448
465.8,0.0137968
465.6,0.0111456
465.4,0.0084944
465.2,0.0058432
465.0,0.003192
464.8,0.0031462
464.6,0.0031004
464.4,0.0030546
464.2,0.0030088
464.0,0.002963
463.8,0.0027916
463.6,0.0026202
463.4,0.0024488
463.2,0.0022774
463.0,0.002106
462.8,0.001864
462.6,0.001622
462.4,0.00138
462.2,0.001138
462.0,0.000896
461.8,0.0019438
461.6,0.0029916
461.4,0.0040394
461.2,0.0050872
461.0,0.006135
460.8,0.0054238
460.6,0.0047126
460.4,0.0040014
460.2,0.0032902
460.0,0.002579
459.8,0.0028364
459.6,0.0030938
459.4,0.0033512
459.2,0.0036086
459.0,0.003866
458.8,0.0035414
458.6,0.0032168
458.4,0.0028922
458.2,0.0025676
458.0,0.002243
457.8,0.0035398
457.6,0.0048366
457.4,0.0061334
457.2,0.0074302
457.0,0.008727
456.8,0.0088492
456.6,0.0089714
456.4,0.0090936
456.2,0.0092158
456.0,0.009338
455.8,0.0085946
455.6,0.0078512
455.4,0.0071078
455.2,0.0063644
455.0,0.005621
454.8,0.0057094
454.6,0.0057978
454.4,0.0058862
454.2,0.0059746
454.0,0.006063
453.8,0.0069106
453.6,0.0077582
453.4,0.0086058
453.2,0.0094534
453.0,0.010301
452.8,0.0091976
452.6,0.0080942
452.4,0.0069908
452.2,0.0058874
452.0,0.004784
451.8,0.005762
451.6,0.00674
451.4,0.007718
451.2,0.008696
451.0,0.009674
450.8,0.0089166
450.6,0.0081592
450.4,0.0074018
450.2,0.0066444
450.0,0.005887
449.8,0.0054166
449.6,0.0049462
449.4,0.0044758
449.2,0.0040054
449.0,0.003535
448.8,0.0032078
448.6,0.0028806
448.4,0.0025534
448.2,0.0022262
448.0,0.001899
447.8,0.001779
447.6,0.001659
447.4,0.001539
447.2,0.001419
447.0,0.001299
446.8,0.001638
446.6,0.001977
446.4,0.002316
446.2,0.002655
446.0,0.002994
445.8,0.0024604
445.6,0.0019268
445.4,0.0013932
445.2,0.0008596
445.0,0.000326
444.8,0.001467
444.6,0.002608
444.4,0.003749
444.2,0.00489
444.0,0.006031
443.8,0.0053344
443.6,0.0046378
443.4,0.0039412
443.2,0.0032446
443.0,0.002548
442.8,0.002701
442.6,0.002854
442.4,0.003007
442.2,0.00316
442.0,0.003313
441.8,0.0028902
441.6,0.0024674
441.4,0.0020446
441.2,0.0016218
441.0,0.001199
440.8,0.0012422
440.6,0.0012854
440.4,0.0013286
440.2,0.0013718
440.0,0.001415
439.8,0.0013002
439.6,0.0011854
439.4,0.0010706
439.2,0.0009558
439.0,0.000841
438.8,0.0006808
438.6,0.0005206
438.4,0.0003604
438.2,0.0002002
438.0,4E-05
437.8,0.0001732
437.6,0.0003064
437.4,0.0004396
437.2,0.0005728
437.0,0.000706
436.8,0.0006326
436.6,0.0005592
436.4,0.0004858
436.2,0.0004124
436.0,0.000339
435.8,0.0003662
435.6,0.0003934
435.4,0.0004206
435.2,0.0004478
435.0,0.000475
434.8,0.0008468
434.6,0.0012186
434.4,0.0015904
434.2,0.0019622
434.0,0.002334
433.8,0.0026842
433.6,0.0030344
433.4,0.0033846
433.2,0.0037348
433.0,0.004085
432.8,0.0050574
432.6,0.0060298
432.4,0.0070022
432.2,0.0079746
432.0,0.008947
431.8,0.0083912
431.6,0.0078354
431.4,0.0072796
431.2,0.0067238
431.0,0.006168
430.8,0.0055354
430.6,0.0049028
430.4,0.0042702
430.2,0.0036376
430.0,0.003005
429.8,0.002794
429.6,0.002583
429.4,0.002372
429.2,0.002161
429.0,0.00195
428.8,0.0021182
428.6,0.0022864
428.4,0.0024546
428.2,0.0026228
428.0,0.002791
427.8,0.0023854
427.6,0.0019798
427.4,0.0015742
427.2,0.0011686
427.0,0.000763
426.8,0.0006938
426.6,0.0006246
426.4,0.0005554
426.2,0.0004862
426.0,0.000417
425.8,0.0017388
425.6,0.0030606
425.4,0.0043824
425.2,0.0057042
425.0,0.007026
424.8,0.0057844
424.6,0.0045428
424.4,0.0033012
424.2,0.0020596
424.0,0.000818
423.8,0.001056
423.6,0.001294
423.4,0.001532
423.2,0.00177
423.0,0.002008
422.8,0.0016178
422.6,0.0012276
422.4,0.0008374
422.2,0.0004472
422.0,5.7E-05
421.8,0.0011726
421.6,0.0022882
421.4,0.0034038
421.2,0.0045194
421.0,0.005635
420.8,0.004929
420.6,0.004223
420.4,0.003517
420.2,0.002811
420.0,0.002105
419.8,0.0023888
419.6,0.0026726
419.4,0.0029564
419.2,0.0032402
419.0,0.003524
418.8,0.0028698
418.6,0.0022156
418.4,0.0015614
418.2,0.0009072
418.0,0.000253
417.8,0.0004764
417.6,0.0006998
417.4,0.0009232
417.2,0.0011466
417.0,0.00137
416.8,0.002382
416.6,0.003394
416.4,0.004406
416.2,0.005418
416.0,0.00643
415.8,0.0053778
415.6,0.0043256
415.4,0.0032734
415.2,0.0022212
415.0,0.001169
414.8,0.0028028
414.6,0.0044366
414.4,0.0060704
414.2,0.0077042
414.0,0.009338
413.8,0.0074704
413.6,0.0056028
413.4,0.0037352
413.2,0.0018676
413.0,2.68882E-17
412.8,0.000779
412.6,0.001558
412.4,0.002337
412.2,0.003116
412.0,0.003895
411.8,0.0039192
411.6,0.0039434
411.4,0.0039676
411.2,0.0039918
411.0,0.004016
410.8,0.0037696
410.6,0.0035232
410.4,0.0032768
410.2,0.0030304
410.0,0.002784
409.8,0.0028172
409.6,0.0028504
409.4,0.0028836
409.2,0.0029168
409.0,0.00295
408.8,0.0034268
408.6,0.0039036
408.4,0.0043804
408.2,0.0048572
408.0,0.005334
407.8,0.006173
407.6,0.007012
407.4,0.007851
407.2,0.00869
407.0,0.009529
406.8,0.0084338
406.6,0.0073386
406.4,0.0062434
406.2,0.0051482
406.0,0.004053
405.8,0.003597
405.6,0.003141
405.4,0.002685
405.2,0.002229
405.0,0.001773
404.8,0.0030134
404.6,0.0042538
404.4,0.0054942
404.2,0.0067346
404.0,0.007975
403.8,0.0102188
403.6,0.0124626
403.4,0.0147064
403.2,0.0169502
403.0,0.019194
402.8,0.0249422
402.6,0.0306904
402.4,0.0364386
402.2,0.0421868
402.0,0.047935
401.8,0.04289
401.6,0.037845
401.4,0.0328
401.2,0.027755
401.0,0.02271
400.8,0.021772
400.6,0.020834
400.4,0.019896
400.2,0.018958
400.0,0.01802
399.8,0.0172236
399.6,0.0164272
399.4,0.0156308
399.2,0.0148344
399.0,0.014038
398.8,0.0129336
398.6,0.0118292
398.4,0.0107248
398.2,0.0096204
398.0,0.008516
397.8,0.008063
397.6,0.00761
397.4,0.007157
397.2,0.006704
397.0,0.006251
396.8,0.0061936
396.6,0.0061362
396.4,0.0060788
396.2,0.0060214
396.0,0.005964
395.8,0.0077998
395.6,0.0096356
395.4,0.0114714
395.2,0.0133072
395.0,0.015143
394.8,0.015302
394.6,0.015461
394.4,0.01562
394.2,0.015779
394.0,0.015938
393.8,0.0192668
393.6,0.0225956
393.4,0.0259244
393.2,0.0292532
393.0,0.032582
392.8,0.029582
392.6,0.026582
392.4,0.023582
392.2,0.020582
392.0,0.017582
391.8,0.0150646
391.6,0.0125472
391.4,0.0100298
391.2,0.0075124
391.0,0.004995
390.8,0.0067546
390.6,0.0085142
390.4,0.0102738
390.2,0.0120334
390.0,0.013793
389.8,0.0124268
389.6,0.0110606
389.4,0.0096944
389.2,0.0083282
389.0,0.006962
388.8,0.0065038
388.6,0.0060456
388.4,0.0055874
388.2,0.0051292
388.0,0.004671
387.8,0.0078718
387.6,0.0110726
387.4,0.0142734
387.2,0.0174742
387.0,0.020675
386.8,0.0170726
386.6,0.0134702
386.4,0.0098678
386.2,0.0062654
386.0,0.002663
385.8,0.0041416
385.6,0.0056202
385.4,0.0070988
385.2,0.0085774
385.0,0.010056
384.8,0.0086096
384.6,0.0071632
384.4,0.0057168
384.2,0.0042704
384.0,0.002824
383.8,0.0039212
383.6,0.0050184
383.4,0.0061156
383.2,0.0072128
383.0,0.00831
382.8,0.0071264
382.6,0.0059428
382.4,0.0047592
382.2,0.0035756
382.0,0.002392
381.8,0.0031024
381.6,0.0038128
381.4,0.0045232
381.2,0.0052336
381.0,0.005944
380.8,0.0055544
380.6,0.0051648
380.4,0.0047752
380.2,0.0043856
380.0,0.003996
379.8,0.0078568
379.6,0.0117176
379.4,0.0155784
379.2,0.0194392
379.0,0.0233
378.8,0.0205414
378.6,0.0177828
378.4,0.0150242
378.2,0.0122656
378.0,0.009507
377.8,0.0094596
377.6,0.0094122
377.4,0.0093648
377.2,0.0093174
377.0,0.00927
376.8,0.0100062
376.6,0.0107424
376.4,0.0114786
376.2,0.0122148
376.0,0.012951
375.8,0.0148726
375.6,0.0167942
375.4,0.0187158
375.2,0.0206374
375.0,0.022559
374.8,0.0220792
374.6,0.0215994
374.4,0.0211196
374.2,0.0206398
374.0,0.02016
373.8,0.0173224
373.6,0.0144848
373.4,0.0116472
373.2,0.0088096
373.0,0.005972
372.8,0.0098164
372.6,0.0136608
372.4,0.0175052
372.2,0.0213496
372.0,0.025194
371.8,0.0241604
371.6,0.0231268
371.4,0.0220932
371.2,0.0210596
371.0,0.020026
370.8,0.0195972
370.6,0.0191684
370.4,0.0187396
370.2,0.0183108
370.0,0.017882
369.8,0.0143056
369.6,0.0107292
369.4,0.0071528
369.2,0.0035764
369.0,-7.41594E-17
368.8,0.0005916
368.6,0.0011832
368.4,0.0017748
368.2,0.0023664
368.0,0.002958
367.8,0.0025222
367.6,0.0020864
367.4,0.0016506
367.2,0.0012148
367.0,0.000779
366.8,0.0011452
366.6,0.0015114
366.4,0.0018776
366.2,0.0022438
366.0,0.00261
365.8,0.002392
365.6,0.002174
365.4,0.001956
365.2,0.001738
365.0,0.00152
364.8,0.001474
364.6,0.001428
364.4,0.001382
364.2,0.001336
364.0,0.00129
363.8,0.0012976
363.6,0.0013052
363.4,0.0013128
363.2,0.0013204
363.0,0.001328
362.8,0.0014606
362.6,0.0015932
362.4,0.0017258
362.2,0.0018584
362.0,0.001991
361.8,0.0021786
361.6,0.0023662
361.4,0.0025538
361.2,0.0027414
361.0,0.002929
360.8,0.0026514
360.6,0.0023738
360.4,0.0020962
360.2,0.0018186
360.0,0.001541
359.8,0.0018772
359.6,0.0022134
359.4,0.0025496
359.2,0.0028858
359.0,0.003222
358.8,0.0034138
358.6,0.0036056
358.4,0.0037974
358.2,0.0039892
358.0,0.004181
357.8,0.0035266
357.6,0.0028722
357.4,0.0022178
357.2,0.0015634
357.0,0.000909
356.8,0.0007458
356.6,0.0005826
356.4,0.0004194
356.2,0.0002562
356.0,9.3E-05
355.8,0.0009724
355.6,0.0018518
355.4,0.0027312
355.2,0.0036106
355.0,0.00449
354.8,0.0039692
354.6,0.0034484
354.4,0.0029276
354.2,0.0024068
354.0,0.001886
353.8,0.0024602
353.6,0.0030344
353.4,0.0036086
353.2,0.0041828
353.0,0.004757
352.8,0.004124
352.6,0.003491
352.4,0.002858
352.2,0.002225
352.0,0.001592
351.8,0.0015436
351.6,0.0014952
351.4,0.0014468
351.2,0.0013984
351.0,0.00135
350.8,0.001602
350.6,0.001854
350.4,0.002106
350.2,0.002358
350.0,0.00261
349.8,0.0026542
349.6,0.0026984
349.4,0.0027426
349.2,0.0027868
349.0,0.002831
348.8,0.0026352
348.6,0.0024394
348.4,0.0022436
348.2,0.0020478
348.0,0.001852
347.8,0.0022522
347.6,0.0026524
347.4,0.0030526
347.2,0.0034528
347.0,0.003853
346.8,0.0032052
346.6,0.0025574
346.4,0.0019096
346.2,0.0012618
346.0,0.000614
345.8,0.0011034
345.6,0.0015928
345.4,0.0020822
345.2,0.0025716
345.0,0.003061
344.8,0.0029342
344.6,0.0028074
344.4,0.0026806
344.2,0.0025538
344.0,0.002427
343.8,0.0024264
343.6,0.0024258
343.4,0.0024252
343.2,0.0024246
343.0,0.002424
342.8,0.0027752
342.6,0.0031264
342.4,0.0034776
342.2,0.0038288
342.0,0.00418
341.8,0.0033752
341.6,0.0025704
341.4,0.0017656
341.2,0.0009608
341.0,0.000156
340.8,0.0011176
340.6,0.0020792
340.4,0.0030408
340.2,0.0040024
340.0,0.004964
339.8,0.0041712
339.6,0.0033784
339.4,0.0025856
339.2,0.0017928
339.0,0.001
338.8,0.0016614
338.6,0.0023228
338.4,0.0029842
338.2,0.0036456
338.0,0.004307
337.8,0.0044388
337.6,0.0045706
337.4,0.0047024
337.2,0.0048342
337.0,0.004966
336.8,0.0041706
336.6,0.0033752
336.4,0.0025798
336.2,0.0017844
336.0,0.000989
335.8,0.0012644
335.6,0.0015398
335.4,0.0018152
335.2,0.0020906
335.0,0.002366
334.8,0.002
334.6,0.001634
334.4,0.001268
334.2,0.000902
334.0,0.000536
333.8,0.0004582
333.6,0.0003804
333.4,0.0003026
333.2,0.0002248
333.0,0.000147
332.8,0.0009146
332.6,0.0016822
332.4,0.0024498
332.2,0.0032174
332.0,0.003985
331.8,0.0042232
331.6,0.0044614
331.4,0.0046996
331.2,0.0049378
331.0,0.005176
330.8,0.0049208
330.6,0.0046656
330.4,0.0044104
330.2,0.0041552
330.0,0.0039
329.8,0.0035456
329.6,0.0031912
329.4,0.0028368
329.2,0.0024824
329.0,0.002128
328.8,0.004151
328.6,0.006174
328.4,0.008197
328.2,0.01022
328.0,0.012243
327.8,0.011001
327.6,0.009759
327.4,0.008517
327.2,0.007275
327.0,0.006033
326.8,0.0051044
326.6,0.0041758
326.4,0.0032472
326.2,0.0023186
326.0,0.00139
325.8,0.003227
325.6,0.005064
325.4,0.006901
325.2,0.008738
325.0,0.010575
324.8,0.008845
324.6,0.007115
324.4,0.005385
324.2,0.003655
324.0,0.001925
323.8,0.003371
323.6,0.004817
323.4,0.006263
323.2,0.007709
323.0,0.009155
322.8,0.0074218
322.6,0.0056886
322.4,0.0039554
322.2,0.0022222
322.0,0.000489
321.8,0.0017782
321.6,0.0030674
321.4,0.0043566
321.2,0.0056458
321.0,0.006935
320.8,0.0069822
320.6,0.0070294
320.4,0.0070766
320.2,0.0071238
320.0,0.007171
319.8,0.0070648
319.6,0.0069586
319.4,0.0068524
319.2,0.0067462
319.0,0.00664
318.8,0.0074428
318.6,0.0082456
318.4,0.0090484
318.2,0.0098512
318.0,0.010654
317.8,0.0095596
317.6,0.0084652
317.4,0.0073708
317.2,0.0062764
317.0,0.005182
316.8,0.0053156
316.6,0.0054492
316.4,0.0055828
316.2,0.0057164
316.0,0.00585
315.8,0.008598
315.6,0.011346
315.4,0.014094
315.2,0.016842
315.0,0.01959
314.8,0.0157018
314.6,0.0118136
314.4,0.0079254
314.2,0.0040372
314.0,0.000149
313.8,0.0019258
313.6,0.0037026
313.4,0.0054794
313.2,0.0072562
313.0,0.009033
312.8,0.0079114
312.6,0.0067898
312.4,0.0056682
312.2,0.0045466
312.0,0.003425
311.8,0.0057396
311.6,0.0080542
311.4,0.0103688
311.2,0.0126834
311.0,0.014998
310.8,0.014693
310.6,0.014388
310.4,0.014083
310.2,0.013778
310.0,0.013473
309.8,0.0108622
309.6,0.0082514
309.4,0.0056406
309.2,0.0030298
309.0,0.000419
308.8,0.0020852
308.6,0.0037514
308.4,0.0054176
308.2,0.0070838
308.0,0.00875
307.8,0.0141766
307.6,0.0196032
307.4,0.0250298
307.2,0.0304564
307.0,0.035883
306.8,0.0325448
306.6,0.0292066
306.4,0.0258684
306.2,0.0225302
306.0,0.019192
305.8,0.03472
305.6,0.050248
305.4,0.065776
305.2,0.081304
305.0,0.096832
304.8,0.102855
304.6,0.108878
304.4,0.114901
304.2,0.120924
304.0,0.126947
303.8,0.1478742
303.6,0.1688014
303.4,0.1897286
303.2,0.2106558
303.0,0.231583
302.8,0.2658268
302.6,0.3000706
302.4,0.3343144
302.2,0.3685582
302.0,0.402802
301.8,0.4051048
301.6,0.4074076
301.4,0.4097104
301.2,0.4120132
301.0,0.414316
300.8,0.4993224
300.6,0.5843288
300.4,0.6693352
300.2,0.7543416
300.0,0.839348
